#K-Path(1/A)         Spin-Up(eV)   Spin-down(eV)
# NKPTS & NBANDS: 200  17
# Band-Index    1
   0.00000    -17.814148    -17.814148
   0.16111    -17.812257    -17.812257
   0.32221    -17.806106    -17.806105
   0.48332    -17.796251    -17.796251
   0.64443    -17.783241    -17.783241
   0.80554    -17.766200    -17.766200
   0.96664    -17.746305    -17.746305
   1.12775    -17.722185    -17.722185
   1.28886    -17.696126    -17.696126
   1.44997    -17.667312    -17.667312
   1.61107    -17.636017    -17.636017
   1.77218    -17.602524    -17.602524
   1.93329    -17.568197    -17.568197
   2.09440    -17.531298    -17.531298
   2.25550    -17.493191    -17.493191
   2.41661    -17.454236    -17.454236
   2.57772    -17.414788    -17.414788
   2.73882    -17.375214    -17.375214
   2.89993    -17.337023    -17.337023
   3.06104    -17.299438    -17.299438
   3.22215    -17.261726    -17.261726
   3.38325    -17.224785    -17.224785
   3.54436    -17.189846    -17.189846
   3.70547    -17.156669    -17.156669
   3.86658    -17.124022    -17.124022
   4.02768    -17.094892    -17.094892
   4.18879    -17.067933    -17.067933
   4.34990    -17.043613    -17.043613
   4.51100    -17.020860    -17.020860
   4.67211    -17.000078    -17.000077
   4.83322    -16.980063    -16.980063
   4.99433    -16.962933    -16.962933
   5.15543    -16.947535    -16.947535
   5.31654    -16.933806    -16.933806
   5.47765    -16.921875    -16.921875
   5.63876    -16.911126    -16.911126
   5.79986    -16.903043    -16.903043
   5.96097    -16.897082    -16.897083
   6.12208    -16.893074    -16.893074
   6.28319    -16.891847    -16.891847
   6.28319    -16.891847    -16.891847
   6.36374    -16.891717    -16.891717
   6.44429    -16.891335    -16.891335
   6.52485    -16.891367    -16.891367
   6.60540    -16.890502    -16.890502
   6.68595    -16.890100    -16.890100
   6.76651    -16.888815    -16.888815
   6.84706    -16.887353    -16.887353
   6.92761    -16.885754    -16.885754
   7.00817    -16.884670    -16.884670
   7.08872    -16.882961    -16.882962
   7.16928    -16.881311    -16.881311
   7.24983    -16.880242    -16.880242
   7.33038    -16.879052    -16.879052
   7.41094    -16.878640    -16.878641
   7.49149    -16.878687    -16.878687
   7.57204    -16.879597    -16.879597
   7.65260    -16.881311    -16.881311
   7.73315    -16.883658    -16.883658
   7.81370    -16.886484    -16.886484
   7.89426    -16.889650    -16.889650
   7.97481    -16.893043    -16.893043
   8.05537    -16.896563    -16.896564
   8.13592    -16.900000    -16.899999
   8.21647    -16.903585    -16.903585
   8.29703    -16.907115    -16.907115
   8.37758    -16.911480    -16.911480
   8.45813    -16.914234    -16.914235
   8.53869    -16.917401    -16.917401
   8.61924    -16.920378    -16.920378
   8.69980    -16.923141    -16.923141
   8.78035    -16.925911    -16.925911
   8.86090    -16.928182    -16.928181
   8.94146    -16.930188    -16.930189
   9.02201    -16.932026    -16.932026
   9.10256    -16.933455    -16.933455
   9.18312    -16.934575    -16.934575
   9.26367    -16.935379    -16.935379
   9.34422    -16.936098    -16.936098
   9.42478    -16.936541    -16.936540
   9.42478    -16.936541    -16.936541
   9.63015    -16.973794    -16.973794
   9.83552    -17.015270    -17.015270
  10.04089    -17.059956    -17.059956
  10.24627    -17.107512    -17.107511
  10.45164    -17.157556    -17.157555
  10.65701    -17.209259    -17.209259
  10.86238    -17.261250    -17.261250
  11.06776    -17.313674    -17.313675
  11.27313    -17.365627    -17.365627
  11.47850    -17.416524    -17.416524
  11.68387    -17.465293    -17.465293
  11.88925    -17.511290    -17.511290
  12.09462    -17.554642    -17.554642
  12.29999    -17.593575    -17.593575
  12.50536    -17.628434    -17.628434
  12.71074    -17.658766    -17.658766
  12.91611    -17.684243    -17.684243
  13.12148    -17.704256    -17.704256
  13.32685    -17.718716    -17.718716
  13.53222    -17.727458    -17.727458
  13.73760    -17.730380    -17.730380
  13.94297    -17.727968    -17.727968
  14.14834    -17.718968    -17.718968
  14.35371    -17.704256    -17.704256
  14.55909    -17.683725    -17.683725
  14.76446    -17.658273    -17.658273
  14.96983    -17.628199    -17.628199
  15.17520    -17.593461    -17.593461
  15.38058    -17.554113    -17.554113
  15.58595    -17.511290    -17.511290
  15.79132    -17.465059    -17.465059
  15.99669    -17.416755    -17.416755
  16.20207    -17.365869    -17.365869
  16.40744    -17.314296    -17.314296
  16.61281    -17.262272    -17.262272
  16.81818    -17.210469    -17.210469
  17.02355    -17.159845    -17.159845
  17.22893    -17.111090    -17.111090
  17.43430    -17.065461    -17.065462
  17.43430    -17.065462    -17.065462
  17.60518    -17.091817    -17.091817
  17.77606    -17.117792    -17.117792
  17.94694    -17.142785    -17.142785
  18.11782    -17.166839    -17.166839
  18.28870    -17.188876    -17.188876
  18.45958    -17.209220    -17.209220
  18.63046    -17.227128    -17.227128
  18.80134    -17.242503    -17.242504
  18.97222    -17.255083    -17.255083
  19.14310    -17.265786    -17.265786
  19.31398    -17.273595    -17.273595
  19.48486    -17.278762    -17.278762
  19.65574    -17.280447    -17.280447
  19.82662    -17.278271    -17.278272
  19.99750    -17.272611    -17.272611
  20.16838    -17.264310    -17.264310
  20.33926    -17.253129    -17.253129
  20.51014    -17.240077    -17.240076
  20.68102    -17.224327    -17.224327
  20.85190    -17.214666    -17.214666
  21.02278    -17.259632    -17.259632
  21.19366    -17.306041    -17.306041
  21.36454    -17.353020    -17.353020
  21.53542    -17.399038    -17.399038
  21.70630    -17.445031    -17.445031
  21.87718    -17.489558    -17.489558
  22.04806    -17.532452    -17.532452
  22.21894    -17.572808    -17.572808
  22.38982    -17.611349    -17.611349
  22.56070    -17.647204    -17.647204
  22.73158    -17.680112    -17.680112
  22.90246    -17.709773    -17.709773
  23.07334    -17.737249    -17.737249
  23.24422    -17.760288    -17.760288
  23.41510    -17.779211    -17.779211
  23.58598    -17.794367    -17.794367
  23.75686    -17.805412    -17.805412
  23.92774    -17.812022    -17.812022
  24.09862    -17.814148    -17.814148
  24.09862    -17.814148    -17.814148
  24.23815    -17.812732    -17.812732
  24.37767    -17.808481    -17.808481
  24.51719    -17.800710    -17.800710
  24.65672    -17.790881    -17.790881
  24.79624    -17.778311    -17.778311
  24.93576    -17.762678    -17.762677
  25.07528    -17.744054    -17.744054
  25.21481    -17.723704    -17.723704
  25.35433    -17.700158    -17.700158
  25.49385    -17.675080    -17.675080
  25.63338    -17.647079    -17.647079
  25.77290    -17.618217    -17.618217
  25.91242    -17.587072    -17.587072
  26.05195    -17.554224    -17.554224
  26.19147    -17.519782    -17.519782
  26.33099    -17.484232    -17.484232
  26.47051    -17.447886    -17.447886
  26.61004    -17.412470    -17.412470
  26.74956    -17.380734    -17.380733
  26.88908    -17.380733    -17.380733
  27.02861    -17.412470    -17.412470
  27.16813    -17.447886    -17.447886
  27.30765    -17.484232    -17.484232
  27.44718    -17.519782    -17.519782
  27.58670    -17.554224    -17.554224
  27.72622    -17.587072    -17.587072
  27.86575    -17.618217    -17.618217
  28.00527    -17.647079    -17.647079
  28.14479    -17.675080    -17.675080
  28.28431    -17.700158    -17.700158
  28.42384    -17.723704    -17.723704
  28.56336    -17.744054    -17.744054
  28.70288    -17.762678    -17.762677
  28.84241    -17.778311    -17.778311
  28.98193    -17.790881    -17.790881
  29.12145    -17.800710    -17.800710
  29.26098    -17.808481    -17.808481
  29.40050    -17.812732    -17.812732
  29.54002    -17.814148    -17.814148
 
# Band-Index    2
  29.54002    -16.821664    -16.821664
  29.40050    -16.823494    -16.823494
  29.26098    -16.829352    -16.829352
  29.12145    -16.839292    -16.839292
  28.98193    -16.851880    -16.851880
  28.84241    -16.867848    -16.867848
  28.70288    -16.887049    -16.887049
  28.56336    -16.909825    -16.909825
  28.42384    -16.935330    -16.935330
  28.28431    -16.963108    -16.963108
  28.14479    -16.992543    -16.992544
  28.00527    -17.024854    -17.024854
  27.86575    -17.059018    -17.059018
  27.72622    -17.094747    -17.094747
  27.58670    -17.131752    -17.131752
  27.44718    -17.169708    -17.169707
  27.30765    -17.207581    -17.207581
  27.16813    -17.246259    -17.246259
  27.02861    -17.284085    -17.284085
  26.88908    -17.316623    -17.316623
  26.74956    -17.316623    -17.316622
  26.61004    -17.284085    -17.284085
  26.47051    -17.246259    -17.246259
  26.33099    -17.207581    -17.207581
  26.19147    -17.169708    -17.169708
  26.05195    -17.131752    -17.131752
  25.91242    -17.094747    -17.094747
  25.77290    -17.059018    -17.059018
  25.63338    -17.024854    -17.024854
  25.49385    -16.992544    -16.992544
  25.35433    -16.963108    -16.963108
  25.21481    -16.935330    -16.935330
  25.07528    -16.909825    -16.909825
  24.93576    -16.887049    -16.887049
  24.79624    -16.867849    -16.867849
  24.65672    -16.851880    -16.851880
  24.51719    -16.839292    -16.839292
  24.37767    -16.829352    -16.829352
  24.23815    -16.823494    -16.823494
  24.09862    -16.821664    -16.821664
  24.09862    -16.821664    -16.821664
  23.92774    -16.823875    -16.823875
  23.75686    -16.829511    -16.829511
  23.58598    -16.838311    -16.838311
  23.41510    -16.850401    -16.850401
  23.24422    -16.865557    -16.865557
  23.07334    -16.883802    -16.883802
  22.90246    -16.904859    -16.904859
  22.73158    -16.927473    -16.927474
  22.56070    -16.952319    -16.952319
  22.38982    -16.977314    -16.977314
  22.21894    -17.003532    -17.003532
  22.04806    -17.030960    -17.030960
  21.87718    -17.058415    -17.058415
  21.70630    -17.085384    -17.085383
  21.53542    -17.111936    -17.111936
  21.36454    -17.137483    -17.137483
  21.19366    -17.162063    -17.162063
  21.02278    -17.184543    -17.184543
  20.85190    -17.203877    -17.203877
  20.68102    -17.167015    -17.167015
  20.51014    -17.122830    -17.122830
  20.33926    -17.080255    -17.080255
  20.16838    -17.040751    -17.040751
  19.99750    -17.002697    -17.002697
  19.82662    -16.967382    -16.967382
  19.65574    -16.935637    -16.935637
  19.48486    -16.906084    -16.906084
  19.31398    -16.880356    -16.880356
  19.14310    -16.858080    -16.858080
  18.97222    -16.838619    -16.838619
  18.80134    -16.823877    -16.823877
  18.63046    -16.811949    -16.811949
  18.45958    -16.803242    -16.803242
  18.28870    -16.797553    -16.797553
  18.11782    -16.794659    -16.794659
  17.94694    -16.794261    -16.794261
  17.77606    -16.796079    -16.796078
  17.60518    -16.799301    -16.799300
  17.43430    -16.804561    -16.804561
  17.43430    -16.804560    -16.804560
  17.22893    -16.802995    -16.802995
  17.02355    -16.802036    -16.802036
  16.81818    -16.801732    -16.801732
  16.61281    -16.801427    -16.801427
  16.40744    -16.802347    -16.802347
  16.20207    -16.803616    -16.803616
  15.99669    -16.804990    -16.804990
  15.79132    -16.806876    -16.806876
  15.58595    -16.808327    -16.808327
  15.38058    -16.809710    -16.809710
  15.17520    -16.811035    -16.811035
  14.96983    -16.812925    -16.812926
  14.76446    -16.814276    -16.814276
  14.55909    -16.815837    -16.815837
  14.35371    -16.816863    -16.816863
  14.14834    -16.817475    -16.817475
  13.94297    -16.817874    -16.817874
  13.73760    -16.818202    -16.818202
  13.53222    -16.818072    -16.818072
  13.32685    -16.817620    -16.817620
  13.12148    -16.816863    -16.816863
  12.91611    -16.815508    -16.815508
  12.71074    -16.814572    -16.814572
  12.50536    -16.812971    -16.812971
  12.29999    -16.811336    -16.811336
  12.09462    -16.810272    -16.810272
  11.88925    -16.808327    -16.808327
  11.68387    -16.806182    -16.806182
  11.47850    -16.804522    -16.804522
  11.27313    -16.802210    -16.802210
  11.06776    -16.800480    -16.800480
  10.86238    -16.798550    -16.798550
  10.65701    -16.796859    -16.796859
  10.45164    -16.795333    -16.795333
  10.24627    -16.793864    -16.793864
  10.04089    -16.793201    -16.793201
   9.83552    -16.792284    -16.792284
   9.63015    -16.791296    -16.791296
   9.42478    -16.791127    -16.791127
   9.42478    -16.791127    -16.791126
   9.34422    -16.791277    -16.791277
   9.26367    -16.791724    -16.791725
   9.18312    -16.792476    -16.792476
   9.10256    -16.793518    -16.793518
   9.02201    -16.794845    -16.794845
   8.94146    -16.796445    -16.796445
   8.86090    -16.798307    -16.798306
   8.78035    -16.800731    -16.800731
   8.69980    -16.803072    -16.803072
   8.61924    -16.805625    -16.805625
   8.53869    -16.808363    -16.808363
   8.45813    -16.811262    -16.811262
   8.37758    -16.814314    -16.814314
   8.29703    -16.817417    -16.817417
   8.21647    -16.820616    -16.820616
   8.13592    -16.823843    -16.823842
   8.05537    -16.827578    -16.827578
   7.97481    -16.830712    -16.830712
   7.89426    -16.833697    -16.833697
   7.81370    -16.836601    -16.836601
   7.73315    -16.838999    -16.838999
   7.65260    -16.840902    -16.840902
   7.57204    -16.842163    -16.842163
   7.49149    -16.842723    -16.842723
   7.41094    -16.842546    -16.842546
   7.33038    -16.841259    -16.841259
   7.24983    -16.839917    -16.839917
   7.16928    -16.837964    -16.837964
   7.08872    -16.836155    -16.836156
   7.00817    -16.834065    -16.834065
   6.92761    -16.831973    -16.831973
   6.84706    -16.830053    -16.830053
   6.76651    -16.828300    -16.828300
   6.68595    -16.826755    -16.826755
   6.60540    -16.825160    -16.825160
   6.52485    -16.824122    -16.824122
   6.44429    -16.823237    -16.823237
   6.36374    -16.821953    -16.821953
   6.28319    -16.821803    -16.821803
   6.28319    -16.821803    -16.821803
   6.12208    -16.823059    -16.823059
   5.96097    -16.824516    -16.824516
   5.79986    -16.827081    -16.827081
   5.63876    -16.830421    -16.830421
   5.47765    -16.834937    -16.834937
   5.31654    -16.840338    -16.840338
   5.15543    -16.847237    -16.847237
   4.99433    -16.854966    -16.854966
   4.83322    -16.863640    -16.863641
   4.67211    -16.872965    -16.872965
   4.51100    -16.882523    -16.882523
   4.34990    -16.891953    -16.891953
   4.18879    -16.902006    -16.902006
   4.02768    -16.909976    -16.909976
   3.86658    -16.917524    -16.917524
   3.70547    -16.924161    -16.924161
   3.54436    -16.929256    -16.929256
   3.38325    -16.932761    -16.932761
   3.22215    -16.934959    -16.934959
   3.06104    -16.935361    -16.935361
   2.89993    -16.933992    -16.933992
   2.73882    -16.931370    -16.931370
   2.57772    -16.927243    -16.927243
   2.41661    -16.921712    -16.921712
   2.25550    -16.915298    -16.915298
   2.09440    -16.908511    -16.908511
   1.93329    -16.899465    -16.899465
   1.77218    -16.890909    -16.890909
   1.61107    -16.881935    -16.881935
   1.44997    -16.872865    -16.872865
   1.28886    -16.863931    -16.863931
   1.12775    -16.855488    -16.855488
   0.96664    -16.847415    -16.847415
   0.80554    -16.840547    -16.840547
   0.64443    -16.834449    -16.834449
   0.48332    -16.829518    -16.829518
   0.32221    -16.825596    -16.825596
   0.16111    -16.823242    -16.823242
   0.00000    -16.821664    -16.821664
 
# Band-Index    3
   0.00000     -6.298884     -6.298884
   0.16111     -6.294851     -6.294851
   0.32221     -6.282580     -6.282580
   0.48332     -6.262407     -6.262407
   0.64443     -6.234897     -6.234897
   0.80554     -6.200676     -6.200676
   0.96664     -6.160565     -6.160565
   1.12775     -6.115816     -6.115816
   1.28886     -6.068165     -6.068165
   1.44997     -6.018576     -6.018576
   1.61107     -5.969339     -5.969339
   1.77218     -5.922692     -5.922692
   1.93329     -5.881102     -5.881102
   2.09440     -5.847282     -5.847282
   2.25550     -5.821044     -5.821044
   2.41661     -5.804190     -5.804190
   2.57772     -5.795887     -5.795887
   2.73882     -5.794580     -5.794580
   2.89993     -5.798479     -5.798479
   3.06104     -5.806574     -5.806574
   3.22215     -5.815402     -5.815402
   3.38325     -5.824488     -5.824488
   3.54436     -5.833779     -5.833779
   3.70547     -5.842965     -5.842965
   3.86658     -5.852594     -5.852594
   4.02768     -5.864859     -5.864859
   4.18879     -5.881752     -5.881752
   4.34990     -5.904052     -5.904052
   4.51100     -5.934717     -5.934717
   4.67211     -5.972229     -5.972229
   4.83322     -6.014302     -6.014302
   4.99433     -6.058728     -6.058728
   5.15543     -6.102485     -6.102485
   5.31654     -6.144074     -6.144074
   5.47765     -6.181725     -6.181725
   5.63876     -6.213918     -6.213918
   5.79986     -6.239896     -6.239896
   5.96097     -6.258912     -6.258912
   6.12208     -6.270458     -6.270458
   6.28319     -6.274255     -6.274255
   6.28319     -6.274255     -6.274255
   6.36374     -6.273236     -6.273236
   6.44429     -6.270272     -6.270272
   6.52485     -6.265342     -6.265343
   6.60540     -6.258290     -6.258290
   6.68595     -6.249380     -6.249380
   6.76651     -6.238474     -6.238474
   6.84706     -6.225723     -6.225723
   6.92761     -6.211199     -6.211199
   7.00817     -6.195006     -6.195006
   7.08872     -6.177187     -6.177187
   7.16928     -6.157765     -6.157765
   7.24983     -6.137118     -6.137118
   7.33038     -6.115140     -6.115140
   7.41094     -6.092121     -6.092121
   7.49149     -6.068048     -6.068048
   7.57204     -6.043491     -6.043491
   7.65260     -6.017973     -6.017973
   7.73315     -5.991996     -5.991996
   7.81370     -5.965759     -5.965759
   7.89426     -5.939376     -5.939376
   7.97481     -5.913265     -5.913265
   8.05537     -5.887554     -5.887554
   8.13592     -5.862420     -5.862420
   8.21647     -5.838223     -5.838223
   8.29703     -5.815135     -5.815135
   8.37758     -5.794184     -5.794184
   8.45813     -5.773716     -5.773716
   8.53869     -5.755231     -5.755231
   8.61924     -5.738587     -5.738588
   8.69980     -5.723864     -5.723864
   8.78035     -5.711174     -5.711174
   8.86090     -5.700351     -5.700351
   8.94146     -5.691331     -5.691330
   9.02201     -5.684123     -5.684123
   9.10256     -5.678386     -5.678386
   9.18312     -5.674093     -5.674093
   9.26367     -5.671121     -5.671121
   9.34422     -5.669580     -5.669579
   9.42478     -5.669012     -5.669011
   9.42478     -5.669012     -5.669012
   9.63015     -5.646064     -5.646063
   9.83552     -5.612141     -5.612141
  10.04089     -5.569249     -5.569249
  10.24627     -5.521177     -5.521177
  10.45164     -5.475461     -5.475460
  10.65701     -5.445347     -5.445347
  10.86238     -5.448777     -5.448777
  11.06776     -5.487587     -5.487587
  11.27313     -5.547535     -5.547535
  11.47850     -5.617915     -5.617915
  11.68387     -5.691857     -5.691857
  11.88925     -5.766106     -5.766106
  12.09462     -5.837841     -5.837841
  12.29999     -5.904871     -5.904871
  12.50536     -5.965906     -5.965906
  12.71074     -6.019622     -6.019622
  12.91611     -6.064910     -6.064910
  13.12148     -6.101149     -6.101149
  13.32685     -6.127444     -6.127444
  13.53222     -6.143481     -6.143481
  13.73760     -6.148956     -6.148956
  13.94297     -6.143751     -6.143750
  14.14834     -6.127703     -6.127703
  14.35371     -6.101149     -6.101148
  14.55909     -6.064531     -6.064531
  14.76446     -6.018430     -6.018430
  14.96983     -5.964007     -5.964007
  15.17520     -5.902304     -5.902304
  15.38058     -5.835548     -5.835548
  15.58595     -5.766106     -5.766106
  15.79132     -5.697366     -5.697365
  15.99669     -5.633338     -5.633338
  16.20207     -5.577490     -5.577490
  16.40744     -5.531382     -5.531382
  16.61281     -5.494300     -5.494300
  16.81818     -5.465194     -5.465194
  17.02355     -5.459903     -5.459903
  17.22893     -5.536652     -5.536652
  17.43430     -5.629827     -5.629828
  17.43430     -5.629828     -5.629828
  17.60518     -5.562815     -5.562815
  17.77606     -5.513803     -5.513803
  17.94694     -5.543738     -5.543738
  18.11782     -5.594771     -5.594771
  18.28870     -5.644693     -5.644693
  18.45958     -5.690585     -5.690585
  18.63046     -5.730907     -5.730907
  18.80134     -5.764463     -5.764463
  18.97222     -5.790124     -5.790124
  19.14310     -5.808875     -5.808875
  19.31398     -5.818379     -5.818379
  19.48486     -5.818887     -5.818887
  19.65574     -5.810864     -5.810864
  19.82662     -5.794086     -5.794086
  19.99750     -5.769344     -5.769344
  20.16838     -5.737350     -5.737350
  20.33926     -5.699070     -5.699070
  20.51014     -5.657304     -5.657304
  20.68102     -5.613244     -5.613243
  20.85190     -5.569368     -5.569368
  21.02278     -5.529648     -5.529648
  21.19366     -5.500558     -5.500558
  21.36454     -5.493752     -5.493752
  21.53542     -5.517407     -5.517407
  21.70630     -5.566221     -5.566220
  21.87718     -5.629031     -5.629031
  22.04806     -5.699105     -5.699105
  22.21894     -5.772511     -5.772511
  22.38982     -5.847304     -5.847304
  22.56070     -5.920973     -5.920973
  22.73158     -5.991352     -5.991352
  22.90246     -6.057606     -6.057606
  23.07334     -6.117357     -6.117357
  23.24422     -6.170611     -6.170611
  23.41510     -6.215621     -6.215621
  23.58598     -6.251547     -6.251547
  23.75686     -6.277711     -6.277711
  23.92774     -6.293607     -6.293607
  24.09862     -6.298884     -6.298884
  24.09862     -6.298884     -6.298884
  24.23815     -6.294878     -6.294878
  24.37767     -6.283027     -6.283027
  24.51719     -6.263141     -6.263141
  24.65672     -6.235718     -6.235718
  24.79624     -6.200962     -6.200961
  24.93576     -6.159184     -6.159184
  25.07528     -6.112012     -6.112012
  25.21481     -6.058221     -6.058221
  25.35433     -5.999331     -5.999331
  25.49385     -5.935918     -5.935918
  25.63338     -5.869859     -5.869859
  25.77290     -5.802879     -5.802879
  25.91242     -5.735393     -5.735394
  26.05195     -5.669936     -5.669936
  26.19147     -5.608796     -5.608796
  26.33099     -5.554538     -5.554538
  26.47051     -5.510419     -5.510419
  26.61004     -5.479160     -5.479160
  26.74956     -5.462815     -5.462814
  26.88908     -5.462815     -5.462815
  27.02861     -5.479160     -5.479160
  27.16813     -5.510419     -5.510419
  27.30765     -5.554538     -5.554538
  27.44718     -5.608796     -5.608796
  27.58670     -5.669936     -5.669936
  27.72622     -5.735394     -5.735394
  27.86575     -5.802879     -5.802879
  28.00527     -5.869859     -5.869859
  28.14479     -5.935917     -5.935918
  28.28431     -5.999331     -5.999331
  28.42384     -6.058221     -6.058221
  28.56336     -6.112012     -6.112012
  28.70288     -6.159184     -6.159184
  28.84241     -6.200961     -6.200961
  28.98193     -6.235718     -6.235718
  29.12145     -6.263141     -6.263141
  29.26098     -6.283026     -6.283027
  29.40050     -6.294878     -6.294878
  29.54002     -6.298884     -6.298884
 
# Band-Index    4
  29.54002     -5.182887     -5.182887
  29.40050     -5.182448     -5.182449
  29.26098     -5.181220     -5.181220
  29.12145     -5.179640     -5.179640
  28.98193     -5.176714     -5.176714
  28.84241     -5.173064     -5.173064
  28.70288     -5.168770     -5.168770
  28.56336     -5.163866     -5.163866
  28.42384     -5.158762     -5.158762
  28.28431     -5.153082     -5.153082
  28.14479     -5.146899     -5.146900
  28.00527     -5.140929     -5.140929
  27.86575     -5.135351     -5.135351
  27.72622     -5.130126     -5.130126
  27.58670     -5.125328     -5.125328
  27.44718     -5.121089     -5.121089
  27.30765     -5.117154     -5.117154
  27.16813     -5.114409     -5.114409
  27.02861     -5.112697     -5.112697
  26.88908     -5.111750     -5.111750
  26.74956     -5.111750     -5.111750
  26.61004     -5.112697     -5.112697
  26.47051     -5.114409     -5.114409
  26.33099     -5.117154     -5.117154
  26.19147     -5.121089     -5.121089
  26.05195     -5.125328     -5.125328
  25.91242     -5.130126     -5.130126
  25.77290     -5.135351     -5.135351
  25.63338     -5.140929     -5.140929
  25.49385     -5.146900     -5.146900
  25.35433     -5.153082     -5.153082
  25.21481     -5.158762     -5.158762
  25.07528     -5.163866     -5.163866
  24.93576     -5.168770     -5.168770
  24.79624     -5.173064     -5.173064
  24.65672     -5.176714     -5.176714
  24.51719     -5.179640     -5.179640
  24.37767     -5.181220     -5.181220
  24.23815     -5.182449     -5.182449
  24.09862     -5.182887     -5.182887
  24.09862     -5.182887     -5.182887
  23.92774     -5.183234     -5.183234
  23.75686     -5.183047     -5.183047
  23.58598     -5.182723     -5.182723
  23.41510     -5.182446     -5.182446
  23.24422     -5.182575     -5.182575
  23.07334     -5.183387     -5.183387
  22.90246     -5.185011     -5.185011
  22.73158     -5.188465     -5.188465
  22.56070     -5.194192     -5.194192
  22.38982     -5.202321     -5.202321
  22.21894     -5.213572     -5.213572
  22.04806     -5.228887     -5.228887
  21.87718     -5.246815     -5.246815
  21.70630     -5.265389     -5.265389
  21.53542     -5.278912     -5.278912
  21.36454     -5.277196     -5.277196
  21.19366     -5.252840     -5.252840
  21.02278     -5.213707     -5.213707
  20.85190     -5.169212     -5.169212
  20.68102     -5.123971     -5.123970
  20.51014     -5.079918     -5.079918
  20.33926     -5.037180     -5.037180
  20.16838     -4.997637     -4.997637
  19.99750     -4.966458     -4.966458
  19.82662     -4.968515     -4.968514
  19.65574     -4.970986     -4.970986
  19.48486     -4.973255     -4.973255
  19.31398     -4.975824     -4.975824
  19.14310     -5.014874     -5.014874
  18.97222     -5.069169     -5.069169
  18.80134     -5.125563     -5.125563
  18.63046     -5.182210     -5.182210
  18.45958     -5.239797     -5.239797
  18.28870     -5.298464     -5.298464
  18.11782     -5.358318     -5.358318
  17.94694     -5.418055     -5.418055
  17.77606     -5.457175     -5.457175
  17.60518     -5.418725     -5.418724
  17.43430     -5.366241     -5.366241
  17.43430     -5.366241     -5.366241
  17.22893     -5.390414     -5.390414
  17.02355     -5.391902     -5.391902
  16.81818     -5.311211     -5.311211
  16.61281     -5.220867     -5.220867
  16.40744     -5.165626     -5.165626
  16.20207     -5.162901     -5.162901
  15.99669     -5.183920     -5.183920
  15.79132     -5.204322     -5.204322
  15.58595     -5.217340     -5.217340
  15.38058     -5.223218     -5.223218
  15.17520     -5.223927     -5.223927
  14.96983     -5.221726     -5.221726
  14.76446     -5.217602     -5.217602
  14.55909     -5.213080     -5.213080
  14.35371     -5.209002     -5.209002
  14.14834     -5.205922     -5.205922
  13.94297     -5.204105     -5.204105
  13.73760     -5.203672     -5.203672
  13.53222     -5.204610     -5.204610
  13.32685     -5.206512     -5.206512
  13.12148     -5.209002     -5.209002
  12.91611     -5.211565     -5.211565
  12.71074     -5.214199     -5.214199
  12.50536     -5.216289     -5.216289
  12.29999     -5.217548     -5.217548
  12.09462     -5.218540     -5.218540
  11.88925     -5.217340     -5.217340
  11.68387     -5.215362     -5.215362
  11.47850     -5.213473     -5.213473
  11.27313     -5.213544     -5.213544
  11.06776     -5.219827     -5.219827
  10.86238     -5.230406     -5.230406
  10.65701     -5.232335     -5.232335
  10.45164     -5.219207     -5.219207
  10.24627     -5.201611     -5.201611
  10.04089     -5.187042     -5.187042
   9.83552     -5.178279     -5.178279
   9.63015     -5.175998     -5.175998
   9.42478     -5.181253     -5.181253
   9.42478     -5.181253     -5.181252
   9.34422     -5.181673     -5.181673
   9.26367     -5.183142     -5.183142
   9.18312     -5.185467     -5.185467
   9.10256     -5.188424     -5.188424
   9.02201     -5.191745     -5.191745
   8.94146     -5.195329     -5.195329
   8.86090     -5.198500     -5.198499
   8.78035     -5.201299     -5.201299
   8.69980     -5.203079     -5.203079
   8.61924     -5.203856     -5.203856
   8.53869     -5.203487     -5.203487
   8.45813     -5.201904     -5.201904
   8.37758     -5.199177     -5.199177
   8.29703     -5.194515     -5.194515
   8.21647     -5.189493     -5.189493
   8.13592     -5.183527     -5.183527
   8.05537     -5.177311     -5.177311
   7.97481     -5.169931     -5.169931
   7.89426     -5.162062     -5.162062
   7.81370     -5.153972     -5.153973
   7.73315     -5.145575     -5.145575
   7.65260     -5.137132     -5.137132
   7.57204     -5.128773     -5.128773
   7.49149     -5.120886     -5.120886
   7.41094     -5.113101     -5.113101
   7.33038     -5.105081     -5.105081
   7.24983     -5.098181     -5.098181
   7.16928     -5.091747     -5.091747
   7.08872     -5.086361     -5.086362
   7.00817     -5.081289     -5.081289
   6.92761     -5.076402     -5.076402
   6.84706     -5.072757     -5.072757
   6.76651     -5.069781     -5.069781
   6.68595     -5.067428     -5.067428
   6.60540     -5.065430     -5.065430
   6.52485     -5.064130     -5.064130
   6.44429     -5.063177     -5.063177
   6.36374     -5.062196     -5.062196
   6.28319     -5.062035     -5.062035
   6.28319     -5.062035     -5.062035
   6.12208     -5.061893     -5.061893
   5.96097     -5.060155     -5.060155
   5.79986     -5.088490     -5.088490
   5.63876     -5.133210     -5.133210
   5.47765     -5.181083     -5.181083
   5.31654     -5.228075     -5.228075
   5.15543     -5.272378     -5.272378
   4.99433     -5.309933     -5.309933
   4.83322     -5.338702     -5.338703
   4.67211     -5.355699     -5.355698
   4.51100     -5.358153     -5.358153
   4.34990     -5.343930     -5.343930
   4.18879     -5.314132     -5.314132
   4.02768     -5.268194     -5.268194
   3.86658     -5.209943     -5.209943
   3.70547     -5.142844     -5.142844
   3.54436     -5.069046     -5.069046
   3.38325     -4.992507     -4.992507
   3.22215     -4.969255     -4.969255
   3.06104     -4.973218     -4.973218
   2.89993     -4.979407     -4.979408
   2.73882     -4.996942     -4.996942
   2.57772     -5.043550     -5.043550
   2.41661     -5.084866     -5.084866
   2.25550     -5.119227     -5.119227
   2.09440     -5.145751     -5.145751
   1.93329     -5.163705     -5.163705
   1.77218     -5.175821     -5.175821
   1.61107     -5.182681     -5.182681
   1.44997     -5.185928     -5.185928
   1.28886     -5.186918     -5.186918
   1.12775     -5.186948     -5.186948
   0.96664     -5.185631     -5.185631
   0.80554     -5.185158     -5.185158
   0.64443     -5.184644     -5.184644
   0.48332     -5.184090     -5.184090
   0.32221     -5.183583     -5.183583
   0.16111     -5.183424     -5.183424
   0.00000     -5.182887     -5.182887
 
# Band-Index    5
   0.00000     -5.182887     -5.182886
   0.16111     -5.182255     -5.182255
   0.32221     -5.179064     -5.179063
   0.48332     -5.173989     -5.173989
   0.64443     -5.166801     -5.166801
   0.80554     -5.157722     -5.157722
   0.96664     -5.146891     -5.146891
   1.12775     -5.134138     -5.134138
   1.28886     -5.120410     -5.120410
   1.44997     -5.105566     -5.105566
   1.61107     -5.089894     -5.089893
   1.77218     -5.073717     -5.073717
   1.93329     -5.057453     -5.057453
   2.09440     -5.041833     -5.041834
   2.25550     -5.025907     -5.025907
   2.41661     -5.011632     -5.011632
   2.57772     -4.998901     -4.998901
   2.73882     -4.987993     -4.987993
   2.89993     -4.949088     -4.949088
   3.06104     -4.908462     -4.908462
   3.22215     -4.922041     -4.922041
   3.38325     -4.967498     -4.967498
   3.54436     -4.968199     -4.968199
   3.70547     -4.970909     -4.970909
   3.86658     -4.974684     -4.974684
   4.02768     -4.980567     -4.980567
   4.18879     -4.988105     -4.988105
   4.34990     -4.995471     -4.995471
   4.51100     -5.003677     -5.003677
   4.67211     -5.012033     -5.012033
   4.83322     -5.020231     -5.020231
   4.99433     -5.028181     -5.028181
   5.15543     -5.035620     -5.035620
   5.31654     -5.042567     -5.042567
   5.47765     -5.048541     -5.048541
   5.63876     -5.053538     -5.053538
   5.79986     -5.057526     -5.057526
   5.96097     -5.050781     -5.050782
   6.12208     -5.024673     -5.024673
   6.28319     -5.015103     -5.015103
   6.28319     -5.015103     -5.015103
   6.36374     -5.015128     -5.015128
   6.44429     -5.015664     -5.015664
   6.52485     -5.015860     -5.015860
   6.60540     -5.015873     -5.015873
   6.68595     -5.016151     -5.016151
   6.76651     -5.015831     -5.015831
   6.84706     -5.015227     -5.015227
   6.92761     -5.014279     -5.014279
   7.00817     -5.013153     -5.013153
   7.08872     -5.011406     -5.011407
   7.16928     -5.009239     -5.009239
   7.24983     -5.006764     -5.006764
   7.33038     -5.003569     -5.003569
   7.41094     -5.000170     -5.000171
   7.49149     -4.996352     -4.996352
   7.57204     -4.992132     -4.992132
   7.65260     -4.987516     -4.987516
   7.73315     -4.982499     -4.982499
   7.81370     -4.977079     -4.977079
   7.89426     -4.971036     -4.971036
   7.97481     -4.964807     -4.964807
   8.05537     -4.958170     -4.958170
   8.13592     -4.951100     -4.951100
   8.21647     -4.943644     -4.943644
   8.29703     -4.935777     -4.935777
   8.37758     -4.927887     -4.927887
   8.45813     -4.918810     -4.918811
   8.53869     -4.909752     -4.909752
   8.61924     -4.900302     -4.900303
   8.69980     -4.890474     -4.890473
   8.78035     -4.880326     -4.880326
   8.86090     -4.869541     -4.869541
   8.94146     -4.858662     -4.858662
   9.02201     -4.847503     -4.847503
   9.10256     -4.836027     -4.836027
   9.18312     -4.824294     -4.824294
   9.26367     -4.812334     -4.812334
   9.34422     -4.800265     -4.800265
   9.42478     -4.788758     -4.788757
   9.42478     -4.788758     -4.788758
   9.63015     -4.811815     -4.811815
   9.83552     -4.846522     -4.846522
  10.04089     -4.889560     -4.889560
  10.24627     -4.936277     -4.936277
  10.45164     -4.981283     -4.981283
  10.65701     -5.017557     -5.017557
  10.86238     -5.038167     -5.038167
  11.06776     -5.039489     -5.039490
  11.27313     -5.025778     -5.025778
  11.47850     -5.011318     -5.011318
  11.68387     -5.005114     -5.005114
  11.88925     -5.009694     -5.009694
  12.09462     -5.022412     -5.022412
  12.29999     -5.039273     -5.039273
  12.50536     -5.057785     -5.057785
  12.71074     -5.075912     -5.075912
  12.91611     -5.091609     -5.091609
  13.12148     -5.105098     -5.105097
  13.32685     -5.114932     -5.114932
  13.53222     -5.120978     -5.120978
  13.73760     -5.122985     -5.122985
  13.94297     -5.120868     -5.120868
  14.14834     -5.114816     -5.114816
  14.35371     -5.105098     -5.105097
  14.55909     -5.092011     -5.092011
  14.76446     -5.076274     -5.076274
  14.96983     -5.059292     -5.059292
  15.17520     -5.041408     -5.041408
  15.38058     -5.024626     -5.024625
  15.58595     -5.009694     -5.009694
  15.79132     -4.997680     -4.997680
  15.99669     -4.989056     -4.989056
  16.20207     -4.982829     -4.982829
  16.40744     -4.972996     -4.972996
  16.61281     -4.964605     -4.964605
  16.81818     -4.973109     -4.973109
  17.02355     -4.985097     -4.985097
  17.22893     -4.997544     -4.997544
  17.43430     -5.010420     -5.010420
  17.43430     -5.010420     -5.010420
  17.60518     -5.005970     -5.005970
  17.77606     -5.002383     -5.002383
  17.94694     -4.998991     -4.998991
  18.11782     -4.995979     -4.995979
  18.28870     -4.993131     -4.993131
  18.45958     -4.990506     -4.990506
  18.63046     -4.987857     -4.987857
  18.80134     -4.985157     -4.985157
  18.97222     -4.981439     -4.981439
  19.14310     -4.978658     -4.978658
  19.31398     -4.962052     -4.962052
  19.48486     -4.915853     -4.915853
  19.65574     -4.902986     -4.902986
  19.82662     -4.926872     -4.926872
  19.99750     -4.960554     -4.960554
  20.16838     -4.965471     -4.965471
  20.33926     -4.964749     -4.964749
  20.51014     -4.966403     -4.966403
  20.68102     -4.969673     -4.969673
  20.85190     -4.974686     -4.974686
  21.02278     -4.981488     -4.981488
  21.19366     -4.989851     -4.989850
  21.36454     -5.000343     -5.000343
  21.53542     -5.012499     -5.012499
  21.70630     -5.026010     -5.026009
  21.87718     -5.040850     -5.040850
  22.04806     -5.056175     -5.056175
  22.21894     -5.071857     -5.071857
  22.38982     -5.087797     -5.087797
  22.56070     -5.103780     -5.103780
  22.73158     -5.118196     -5.118196
  22.90246     -5.132055     -5.132055
  23.07334     -5.144840     -5.144840
  23.24422     -5.156101     -5.156101
  23.41510     -5.165541     -5.165541
  23.58598     -5.173134     -5.173134
  23.75686     -5.178767     -5.178767
  23.92774     -5.181777     -5.181777
  24.09862     -5.182886     -5.182887
  24.09862     -5.182887     -5.182887
  24.23815     -5.182448     -5.182448
  24.37767     -5.181220     -5.181220
  24.51719     -5.179640     -5.179640
  24.65672     -5.176714     -5.176714
  24.79624     -5.173064     -5.173064
  24.93576     -5.168770     -5.168770
  25.07528     -5.163866     -5.163866
  25.21481     -5.158762     -5.158762
  25.35433     -5.153082     -5.153082
  25.49385     -5.146900     -5.146899
  25.63338     -5.140929     -5.140929
  25.77290     -5.135351     -5.135351
  25.91242     -5.130126     -5.130126
  26.05195     -5.125328     -5.125328
  26.19147     -5.121089     -5.121089
  26.33099     -5.117154     -5.117154
  26.47051     -5.114409     -5.114409
  26.61004     -5.112697     -5.112697
  26.74956     -5.111750     -5.111749
  26.88908     -5.111750     -5.111749
  27.02861     -5.112697     -5.112697
  27.16813     -5.114409     -5.114409
  27.30765     -5.117154     -5.117154
  27.44718     -5.121089     -5.121089
  27.58670     -5.125328     -5.125328
  27.72622     -5.130126     -5.130126
  27.86575     -5.135351     -5.135351
  28.00527     -5.140929     -5.140929
  28.14479     -5.146898     -5.146900
  28.28431     -5.153082     -5.153082
  28.42384     -5.158762     -5.158762
  28.56336     -5.163866     -5.163866
  28.70288     -5.168770     -5.168770
  28.84241     -5.173063     -5.173063
  28.98193     -5.176714     -5.176714
  29.12145     -5.179640     -5.179640
  29.26098     -5.181220     -5.181220
  29.40050     -5.182448     -5.182448
  29.54002     -5.182887     -5.182887
 
# Band-Index    6
  29.54002     -4.038511     -4.038511
  29.40050     -4.038431     -4.038431
  29.26098     -4.038447     -4.038447
  29.12145     -4.037879     -4.037879
  28.98193     -4.037361     -4.037361
  28.84241     -4.036709     -4.036709
  28.70288     -4.035865     -4.035865
  28.56336     -4.034823     -4.034823
  28.42384     -4.033960     -4.033960
  28.28431     -4.032869     -4.032869
  28.14479     -4.031520     -4.031520
  28.00527     -4.030403     -4.030403
  27.86575     -4.029489     -4.029489
  27.72622     -4.028537     -4.028537
  27.58670     -4.027659     -4.027659
  27.44718     -4.026883     -4.026882
  27.30765     -4.026013     -4.026013
  27.16813     -4.025510     -4.025510
  27.02861     -4.025434     -4.025434
  26.88908     -4.025256     -4.025256
  26.74956     -4.025256     -4.025255
  26.61004     -4.025434     -4.025434
  26.47051     -4.025510     -4.025510
  26.33099     -4.026013     -4.026013
  26.19147     -4.026883     -4.026883
  26.05195     -4.027659     -4.027659
  25.91242     -4.028537     -4.028537
  25.77290     -4.029489     -4.029489
  25.63338     -4.030403     -4.030403
  25.49385     -4.031520     -4.031520
  25.35433     -4.032869     -4.032869
  25.21481     -4.033960     -4.033960
  25.07528     -4.034823     -4.034823
  24.93576     -4.035865     -4.035865
  24.79624     -4.036709     -4.036709
  24.65672     -4.037361     -4.037361
  24.51719     -4.037879     -4.037879
  24.37767     -4.038447     -4.038447
  24.23815     -4.038431     -4.038431
  24.09862     -4.038511     -4.038511
  24.09862     -4.038511     -4.038511
  23.92774     -4.039468     -4.039469
  23.75686     -4.041618     -4.041618
  23.58598     -4.045483     -4.045483
  23.41510     -4.051022     -4.051022
  23.24422     -4.058244     -4.058244
  23.07334     -4.067381     -4.067381
  22.90246     -4.078693     -4.078693
  22.73158     -4.092501     -4.092501
  22.56070     -4.108981     -4.108981
  22.38982     -4.128381     -4.128381
  22.21894     -4.150413     -4.150413
  22.04806     -4.176365     -4.176365
  21.87718     -4.205401     -4.205401
  21.70630     -4.238016     -4.238016
  21.53542     -4.274217     -4.274217
  21.36454     -4.314499     -4.314499
  21.19366     -4.358031     -4.358031
  21.02278     -4.404215     -4.404215
  20.85190     -4.453227     -4.453227
  20.68102     -4.504446     -4.504446
  20.51014     -4.557290     -4.557290
  20.33926     -4.611416     -4.611416
  20.16838     -4.666349     -4.666349
  19.99750     -4.721170     -4.721170
  19.82662     -4.774727     -4.774727
  19.65574     -4.820198     -4.820198
  19.48486     -4.829652     -4.829652
  19.31398     -4.807017     -4.807017
  19.14310     -4.779380     -4.779380
  18.97222     -4.751486     -4.751486
  18.80134     -4.725414     -4.725414
  18.63046     -4.701091     -4.701091
  18.45958     -4.678577     -4.678577
  18.28870     -4.658138     -4.658138
  18.11782     -4.639905     -4.639905
  17.94694     -4.623695     -4.623695
  17.77606     -4.609994     -4.609994
  17.60518     -4.598178     -4.598177
  17.43430     -4.588789     -4.588789
  17.43430     -4.588789     -4.588789
  17.22893     -4.663340     -4.663340
  17.02355     -4.743029     -4.743029
  16.81818     -4.818857     -4.818857
  16.61281     -4.872833     -4.872833
  16.40744     -4.864509     -4.864509
  16.20207     -4.792223     -4.792223
  15.99669     -4.690782     -4.690782
  15.79132     -4.582465     -4.582465
  15.58595     -4.478061     -4.478061
  15.38058     -4.383680     -4.383680
  15.17520     -4.302743     -4.302743
  14.96983     -4.238152     -4.238152
  14.76446     -4.195760     -4.195760
  14.55909     -4.176314     -4.176314
  14.35371     -4.163154     -4.163154
  14.14834     -4.151231     -4.151231
  13.94297     -4.140631     -4.140631
  13.73760     -4.131622     -4.131622
  13.53222     -4.127523     -4.127523
  13.32685     -4.136783     -4.136783
  13.12148     -4.163154     -4.163154
  12.91611     -4.200194     -4.200194
  12.71074     -4.245540     -4.245540
  12.50536     -4.298173     -4.298173
  12.29999     -4.356174     -4.356174
  12.09462     -4.417667     -4.417667
  11.88925     -4.478061     -4.478061
  11.68387     -4.533728     -4.533728
  11.47850     -4.579370     -4.579370
  11.27313     -4.612460     -4.612460
  11.06776     -4.635782     -4.635782
  10.86238     -4.654767     -4.654767
  10.65701     -4.674281     -4.674281
  10.45164     -4.696074     -4.696074
  10.24627     -4.719554     -4.719554
  10.04089     -4.742523     -4.742523
   9.83552     -4.761613     -4.761613
   9.63015     -4.775961     -4.775961
   9.42478     -4.787099     -4.787099
   9.42478     -4.787099     -4.787098
   9.34422     -4.775310     -4.775310
   9.26367     -4.762714     -4.762714
   9.18312     -4.750245     -4.750245
   9.10256     -4.737829     -4.737828
   9.02201     -4.725532     -4.725532
   8.94146     -4.713421     -4.713421
   8.86090     -4.701568     -4.701567
   8.78035     -4.690388     -4.690388
   8.69980     -4.679269     -4.679269
   8.61924     -4.668622     -4.668622
   8.53869     -4.658507     -4.658506
   8.45813     -4.648980     -4.648980
   8.37758     -4.640428     -4.640428
   8.29703     -4.632126     -4.632126
   8.21647     -4.624619     -4.624619
   8.13592     -4.617835     -4.617835
   8.05537     -4.611908     -4.611908
   7.97481     -4.606570     -4.606570
   7.89426     -4.601919     -4.601920
   7.81370     -4.598012     -4.598012
   7.73315     -4.594605     -4.594605
   7.65260     -4.591744     -4.591744
   7.57204     -4.589371     -4.589371
   7.49149     -4.587441     -4.587441
   7.41094     -4.585862     -4.585863
   7.33038     -4.584570     -4.584570
   7.24983     -4.583572     -4.583572
   7.16928     -4.582707     -4.582707
   7.08872     -4.582111     -4.582112
   7.00817     -4.581624     -4.581624
   6.92761     -4.580550     -4.580549
   6.84706     -4.580259     -4.580259
   6.76651     -4.580036     -4.580036
   6.68595     -4.579867     -4.579867
   6.60540     -4.579712     -4.579712
   6.52485     -4.579624     -4.579624
   6.44429     -4.579538     -4.579538
   6.36374     -4.579505     -4.579505
   6.28319     -4.579495     -4.579495
   6.28319     -4.579495     -4.579495
   6.12208     -4.576636     -4.576636
   5.96097     -4.570299     -4.570300
   5.79986     -4.560888     -4.560888
   5.63876     -4.551654     -4.551654
   5.47765     -4.544468     -4.544469
   5.31654     -4.538732     -4.538732
   5.15543     -4.535642     -4.535642
   4.99433     -4.535211     -4.535211
   4.83322     -4.538080     -4.538081
   4.67211     -4.544975     -4.544974
   4.51100     -4.555943     -4.555943
   4.34990     -4.571823     -4.571823
   4.18879     -4.593355     -4.593355
   4.02768     -4.620099     -4.620099
   3.86658     -4.652604     -4.652604
   3.70547     -4.690683     -4.690683
   3.54436     -4.732942     -4.732942
   3.38325     -4.777576     -4.777576
   3.22215     -4.816692     -4.816692
   3.06104     -4.798984     -4.798984
   2.89993     -4.724908     -4.724908
   2.73882     -4.644539     -4.644539
   2.57772     -4.565500     -4.565500
   2.41661     -4.489907     -4.489907
   2.25550     -4.419076     -4.419076
   2.09440     -4.354260     -4.354260
   1.93329     -4.295996     -4.295996
   1.77218     -4.244691     -4.244691
   1.61107     -4.200882     -4.200882
   1.44997     -4.163881     -4.163881
   1.28886     -4.133125     -4.133125
   1.12775     -4.107928     -4.107928
   0.96664     -4.087732     -4.087732
   0.80554     -4.071714     -4.071714
   0.64443     -4.059304     -4.059304
   0.48332     -4.050059     -4.050059
   0.32221     -4.043682     -4.043682
   0.16111     -4.039858     -4.039858
   0.00000     -4.038511     -4.038511
 
# Band-Index    7
   0.00000     -4.038511     -4.038511
   0.16111     -4.039679     -4.039679
   0.32221     -4.042076     -4.042075
   0.48332     -4.046112     -4.046112
   0.64443     -4.051799     -4.051799
   0.80554     -4.058797     -4.058797
   0.96664     -4.066835     -4.066835
   1.12775     -4.075539     -4.075539
   1.28886     -4.085108     -4.085108
   1.44997     -4.095004     -4.095004
   1.61107     -4.104773     -4.104773
   1.77218     -4.114001     -4.114001
   1.93329     -4.122862     -4.122862
   2.09440     -4.129722     -4.129722
   2.25550     -4.134326     -4.134326
   2.41661     -4.136754     -4.136754
   2.57772     -4.136276     -4.136276
   2.73882     -4.132499     -4.132499
   2.89993     -4.125876     -4.125876
   3.06104     -4.114722     -4.114722
   3.22215     -4.099545     -4.099545
   3.38325     -4.080457     -4.080457
   3.54436     -4.057737     -4.057738
   3.70547     -4.031616     -4.031616
   3.86658     -4.001831     -4.001831
   4.02768     -3.970187     -3.970187
   4.18879     -3.936730     -3.936730
   4.34990     -3.901450     -3.901450
   4.51100     -3.865231     -3.865231
   4.67211     -3.828554     -3.828554
   4.83322     -3.791956     -3.791956
   4.99433     -3.807512     -3.807512
   5.15543     -3.863701     -3.863701
   5.31654     -3.922333     -3.922333
   5.47765     -3.980509     -3.980509
   5.63876     -4.034153     -4.034153
   5.79986     -4.080776     -4.080776
   5.96097     -4.116857     -4.116858
   6.12208     -4.139443     -4.139443
   6.28319     -4.147197     -4.147197
   6.28319     -4.147197     -4.147197
   6.36374     -4.147590     -4.147590
   6.44429     -4.149095     -4.149095
   6.52485     -4.151363     -4.151363
   6.60540     -4.154107     -4.154107
   6.68595     -4.157951     -4.157951
   6.76651     -4.162200     -4.162200
   6.84706     -4.167155     -4.167155
   6.92761     -4.172785     -4.172785
   7.00817     -4.179304     -4.179304
   7.08872     -4.186212     -4.186213
   7.16928     -4.193463     -4.193463
   7.24983     -4.201631     -4.201631
   7.33038     -4.210115     -4.210115
   7.41094     -4.219276     -4.219276
   7.49149     -4.228675     -4.228675
   7.57204     -4.238436     -4.238436
   7.65260     -4.248582     -4.248582
   7.73315     -4.259044     -4.259044
   7.81370     -4.269794     -4.269794
   7.89426     -4.280615     -4.280615
   7.97481     -4.291865     -4.291865
   8.05537     -4.303320     -4.303320
   8.13592     -4.314354     -4.314354
   8.21647     -4.326110     -4.326110
   8.29703     -4.337963     -4.337963
   8.37758     -4.349949     -4.349948
   8.45813     -4.361712     -4.361712
   8.53869     -4.373478     -4.373478
   8.61924     -4.385020     -4.385020
   8.69980     -4.396213     -4.396213
   8.78035     -4.406911     -4.406911
   8.86090     -4.417167     -4.417167
   8.94146     -4.426421     -4.426421
   9.02201     -4.434710     -4.434710
   9.10256     -4.441766     -4.441767
   9.18312     -4.447460     -4.447460
   9.26367     -4.451641     -4.451642
   9.34422     -4.454200     -4.454200
   9.42478     -4.455065     -4.455064
   9.42478     -4.455065     -4.455065
   9.63015     -4.445091     -4.445091
   9.83552     -4.431284     -4.431284
  10.04089     -4.414954     -4.414954
  10.24627     -4.397609     -4.397609
  10.45164     -4.379243     -4.379243
  10.65701     -4.358535     -4.358535
  10.86238     -4.334080     -4.334080
  11.06776     -4.305939     -4.305939
  11.27313     -4.274709     -4.274709
  11.47850     -4.242607     -4.242607
  11.68387     -4.211538     -4.211538
  11.88925     -4.183162     -4.183162
  12.09462     -4.159177     -4.159177
  12.29999     -4.139503     -4.139503
  12.50536     -4.124893     -4.124893
  12.71074     -4.115100     -4.115100
  12.91611     -4.109490     -4.109490
  13.12148     -4.107344     -4.107344
  13.32685     -4.105864     -4.105864
  13.53222     -4.098776     -4.098776
  13.73760     -4.089563     -4.089563
  13.94297     -4.086569     -4.086568
  14.14834     -4.092162     -4.092162
  14.35371     -4.107344     -4.107344
  14.55909     -4.132017     -4.132017
  14.76446     -4.161448     -4.161448
  14.96983     -4.180399     -4.180399
  15.17520     -4.187562     -4.187562
  15.38058     -4.188382     -4.188382
  15.58595     -4.183162     -4.183162
  15.79132     -4.171158     -4.171158
  15.99669     -4.151722     -4.151722
  16.20207     -4.124086     -4.124086
  16.40744     -4.088838     -4.088838
  16.61281     -4.046150     -4.046150
  16.81818     -3.997639     -3.997639
  17.02355     -3.944042     -3.944042
  17.22893     -3.887404     -3.887405
  17.43430     -3.829944     -3.829944
  17.43430     -3.829944     -3.829944
  17.60518     -3.857355     -3.857355
  17.77606     -3.884286     -3.884286
  17.94694     -3.910435     -3.910435
  18.11782     -3.935738     -3.935738
  18.28870     -3.959929     -3.959929
  18.45958     -3.983019     -3.983019
  18.63046     -4.004870     -4.004870
  18.80134     -4.025453     -4.025453
  18.97222     -4.044552     -4.044552
  19.14310     -4.062547     -4.062547
  19.31398     -4.079314     -4.079314
  19.48486     -4.094511     -4.094511
  19.65574     -4.107760     -4.107760
  19.82662     -4.118896     -4.118896
  19.99750     -4.128067     -4.128067
  20.16838     -4.135148     -4.135148
  20.33926     -4.140136     -4.140136
  20.51014     -4.143055     -4.143055
  20.68102     -4.143678     -4.143678
  20.85190     -4.142072     -4.142072
  21.02278     -4.138371     -4.138371
  21.19366     -4.132833     -4.132833
  21.36454     -4.125796     -4.125796
  21.53542     -4.117664     -4.117664
  21.70630     -4.108848     -4.108847
  21.87718     -4.099775     -4.099775
  22.04806     -4.090687     -4.090687
  22.21894     -4.081888     -4.081888
  22.38982     -4.073764     -4.073764
  22.56070     -4.066753     -4.066753
  22.73158     -4.060263     -4.060263
  22.90246     -4.054697     -4.054697
  23.07334     -4.050110     -4.050110
  23.24422     -4.046136     -4.046136
  23.41510     -4.043167     -4.043167
  23.58598     -4.041115     -4.041115
  23.75686     -4.039772     -4.039772
  23.92774     -4.038825     -4.038825
  24.09862     -4.038511     -4.038511
  24.09862     -4.038511     -4.038511
  24.23815     -4.038431     -4.038431
  24.37767     -4.038447     -4.038447
  24.51719     -4.037879     -4.037879
  24.65672     -4.037361     -4.037361
  24.79624     -4.036709     -4.036709
  24.93576     -4.035865     -4.035865
  25.07528     -4.034823     -4.034823
  25.21481     -4.033960     -4.033960
  25.35433     -4.032869     -4.032869
  25.49385     -4.031520     -4.031520
  25.63338     -4.030403     -4.030403
  25.77290     -4.029489     -4.029489
  25.91242     -4.028536     -4.028537
  26.05195     -4.027659     -4.027659
  26.19147     -4.026883     -4.026883
  26.33099     -4.026013     -4.026013
  26.47051     -4.025510     -4.025510
  26.61004     -4.025434     -4.025434
  26.74956     -4.025256     -4.025255
  26.88908     -4.025256     -4.025255
  27.02861     -4.025434     -4.025434
  27.16813     -4.025510     -4.025510
  27.30765     -4.026013     -4.026013
  27.44718     -4.026882     -4.026882
  27.58670     -4.027659     -4.027659
  27.72622     -4.028537     -4.028536
  27.86575     -4.029489     -4.029489
  28.00527     -4.030403     -4.030403
  28.14479     -4.031519     -4.031520
  28.28431     -4.032869     -4.032869
  28.42384     -4.033960     -4.033960
  28.56336     -4.034823     -4.034823
  28.70288     -4.035865     -4.035865
  28.84241     -4.036709     -4.036709
  28.98193     -4.037361     -4.037361
  29.12145     -4.037879     -4.037879
  29.26098     -4.038447     -4.038447
  29.40050     -4.038431     -4.038431
  29.54002     -4.038511     -4.038511
 
# Band-Index    8
  29.54002     -3.175224     -3.175224
  29.40050     -3.176330     -3.176330
  29.26098     -3.179712     -3.179713
  29.12145     -3.185531     -3.185532
  28.98193     -3.193624     -3.193624
  28.84241     -3.204340     -3.204340
  28.70288     -3.217728     -3.217728
  28.56336     -3.234422     -3.234422
  28.42384     -3.255693     -3.255693
  28.28431     -3.280033     -3.280033
  28.14479     -3.308171     -3.308171
  28.00527     -3.341526     -3.341526
  27.86575     -3.381290     -3.381291
  27.72622     -3.423695     -3.423695
  27.58670     -3.468754     -3.468754
  27.44718     -3.514162     -3.514161
  27.30765     -3.555595     -3.555595
  27.16813     -3.592277     -3.592277
  27.02861     -3.619839     -3.619839
  26.88908     -3.634074     -3.634075
  26.74956     -3.634075     -3.634074
  26.61004     -3.619839     -3.619839
  26.47051     -3.592277     -3.592276
  26.33099     -3.555595     -3.555595
  26.19147     -3.514162     -3.514162
  26.05195     -3.468754     -3.468754
  25.91242     -3.423695     -3.423695
  25.77290     -3.381291     -3.381291
  25.63338     -3.341526     -3.341526
  25.49385     -3.308171     -3.308171
  25.35433     -3.280033     -3.280033
  25.21481     -3.255693     -3.255693
  25.07528     -3.234422     -3.234422
  24.93576     -3.217728     -3.217728
  24.79624     -3.204340     -3.204340
  24.65672     -3.193624     -3.193624
  24.51719     -3.185532     -3.185532
  24.37767     -3.179713     -3.179713
  24.23815     -3.176330     -3.176330
  24.09862     -3.175224     -3.175224
  24.09862     -3.175223     -3.175224
  23.92774     -3.176539     -3.176539
  23.75686     -3.180197     -3.180196
  23.58598     -3.185890     -3.185890
  23.41510     -3.193359     -3.193358
  23.24422     -3.201988     -3.201988
  23.07334     -3.210929     -3.210929
  22.90246     -3.220027     -3.220027
  22.73158     -3.227040     -3.227040
  22.56070     -3.231135     -3.231135
  22.38982     -3.230525     -3.230525
  22.21894     -3.223410     -3.223410
  22.04806     -3.210617     -3.210617
  21.87718     -3.190472     -3.190472
  21.70630     -3.168535     -3.168534
  21.53542     -3.173826     -3.173827
  21.36454     -3.226756     -3.226756
  21.19366     -3.290255     -3.290255
  21.02278     -3.350976     -3.350976
  20.85190     -3.401431     -3.401431
  20.68102     -3.443526     -3.443526
  20.51014     -3.477659     -3.477658
  20.33926     -3.504612     -3.504613
  20.16838     -3.526356     -3.526356
  19.99750     -3.540915     -3.540915
  19.82662     -3.549604     -3.549604
  19.65574     -3.553283     -3.553283
  19.48486     -3.550603     -3.550603
  19.31398     -3.544068     -3.544068
  19.14310     -3.532674     -3.532674
  18.97222     -3.516712     -3.516712
  18.80134     -3.496966     -3.496966
  18.63046     -3.473334     -3.473334
  18.45958     -3.447027     -3.447027
  18.28870     -3.424244     -3.424244
  18.11782     -3.446266     -3.446266
  17.94694     -3.533940     -3.533940
  17.77606     -3.628717     -3.628717
  17.60518     -3.716949     -3.716949
  17.43430     -3.796211     -3.796211
  17.43430     -3.796211     -3.796211
  17.22893     -3.679436     -3.679436
  17.02355     -3.562400     -3.562400
  16.81818     -3.464360     -3.464360
  16.61281     -3.401049     -3.401049
  16.40744     -3.367192     -3.367192
  16.20207     -3.345844     -3.345845
  15.99669     -3.328100     -3.328100
  15.79132     -3.310141     -3.310141
  15.58595     -3.291246     -3.291246
  15.38058     -3.272032     -3.272032
  15.17520     -3.253670     -3.253669
  14.96983     -3.237273     -3.237273
  14.76446     -3.223310     -3.223310
  14.55909     -3.212666     -3.212666
  14.35371     -3.204875     -3.204875
  14.14834     -3.199590     -3.199590
  13.94297     -3.196738     -3.196738
  13.73760     -3.195622     -3.195622
  13.53222     -3.196611     -3.196610
  13.32685     -3.199620     -3.199620
  13.12148     -3.204875     -3.204875
  12.91611     -3.212532     -3.212532
  12.71074     -3.223303     -3.223303
  12.50536     -3.237152     -3.237152
  12.29999     -3.253778     -3.253778
  12.09462     -3.272421     -3.272421
  11.88925     -3.291246     -3.291246
  11.68387     -3.308462     -3.308462
  11.47850     -3.322097     -3.322097
  11.27313     -3.328669     -3.328669
  11.06776     -3.326791     -3.326791
  10.86238     -3.315124     -3.315124
  10.65701     -3.292950     -3.292950
  10.45164     -3.264300     -3.264300
  10.24627     -3.263818     -3.263818
  10.04089     -3.319870     -3.319870
   9.83552     -3.378791     -3.378791
   9.63015     -3.429095     -3.429095
   9.42478     -3.470337     -3.470337
   9.42478     -3.470337     -3.470337
   9.34422     -3.471371     -3.471371
   9.26367     -3.474716     -3.474716
   9.18312     -3.480081     -3.480081
   9.10256     -3.487144     -3.487144
   9.02201     -3.495536     -3.495536
   8.94146     -3.504736     -3.504735
   8.86090     -3.514615     -3.514615
   8.78035     -3.524943     -3.524943
   8.69980     -3.534818     -3.534818
   8.61924     -3.544303     -3.544303
   8.53869     -3.553145     -3.553145
   8.45813     -3.561174     -3.561174
   8.37758     -3.568477     -3.568477
   8.29703     -3.574392     -3.574392
   8.21647     -3.579475     -3.579475
   8.13592     -3.583542     -3.583541
   8.05537     -3.587035     -3.587035
   7.97481     -3.589272     -3.589272
   7.89426     -3.590726     -3.590726
   7.81370     -3.591093     -3.591093
   7.73315     -3.591377     -3.591377
   7.65260     -3.591250     -3.591250
   7.57204     -3.590834     -3.590834
   7.49149     -3.590251     -3.590251
   7.41094     -3.589578     -3.589579
   7.33038     -3.588865     -3.588865
   7.24983     -3.588244     -3.588243
   7.16928     -3.587600     -3.587600
   7.08872     -3.587243     -3.587243
   7.00817     -3.586964     -3.586964
   6.92761     -3.586569     -3.586569
   6.84706     -3.586539     -3.586539
   6.76651     -3.586586     -3.586586
   6.68595     -3.586684     -3.586684
   6.60540     -3.586738     -3.586738
   6.52485     -3.586866     -3.586866
   6.44429     -3.586860     -3.586860
   6.36374     -3.586768     -3.586768
   6.28319     -3.586793     -3.586793
   6.28319     -3.586793     -3.586793
   6.12208     -3.590290     -3.590290
   5.96097     -3.599809     -3.599809
   5.79986     -3.615173     -3.615173
   5.63876     -3.635807     -3.635807
   5.47765     -3.661223     -3.661223
   5.31654     -3.690108     -3.690108
   5.15543     -3.722139     -3.722139
   4.99433     -3.756271     -3.756271
   4.83322     -3.757534     -3.757535
   4.67211     -3.716454     -3.716454
   4.51100     -3.685567     -3.685567
   4.34990     -3.664045     -3.664046
   4.18879     -3.649552     -3.649552
   4.02768     -3.638641     -3.638641
   3.86658     -3.628689     -3.628689
   3.70547     -3.617888     -3.617888
   3.54436     -3.603997     -3.603996
   3.38325     -3.586540     -3.586539
   3.22215     -3.565551     -3.565551
   3.06104     -3.539684     -3.539684
   2.89993     -3.508536     -3.508536
   2.73882     -3.473927     -3.473927
   2.57772     -3.436207     -3.436207
   2.41661     -3.396007     -3.396007
   2.25550     -3.355582     -3.355582
   2.09440     -3.317429     -3.317430
   1.93329     -3.283667     -3.283667
   1.77218     -3.256603     -3.256603
   1.61107     -3.236637     -3.236637
   1.44997     -3.222280     -3.222281
   1.28886     -3.211793     -3.211793
   1.12775     -3.203651     -3.203651
   0.96664     -3.196794     -3.196794
   0.80554     -3.191037     -3.191036
   0.64443     -3.185862     -3.185862
   0.48332     -3.181506     -3.181506
   0.32221     -3.178158     -3.178157
   0.16111     -3.176122     -3.176122
   0.00000     -3.175224     -3.175224
 
# Band-Index    9
   0.00000     -1.329294     -1.329294
   0.16111     -1.354851     -1.354851
   0.32221     -1.423524     -1.423524
   0.48332     -1.525808     -1.525808
   0.64443     -1.648506     -1.648506
   0.80554     -1.779555     -1.779555
   0.96664     -1.915292     -1.915292
   1.12775     -2.046820     -2.046820
   1.28886     -2.171783     -2.171783
   1.44997     -2.283988     -2.283988
   1.61107     -2.378620     -2.378620
   1.77218     -2.451583     -2.451583
   1.93329     -2.501874     -2.501874
   2.09440     -2.526279     -2.526279
   2.25550     -2.527410     -2.527410
   2.41661     -2.511336     -2.511336
   2.57772     -2.484100     -2.484100
   2.73882     -2.452359     -2.452359
   2.89993     -2.426506     -2.426506
   3.06104     -2.416054     -2.416054
   3.22215     -2.431250     -2.431250
   3.38325     -2.474499     -2.474499
   3.54436     -2.540323     -2.540323
   3.70547     -2.619423     -2.619423
   3.86658     -2.702556     -2.702556
   4.02768     -2.786107     -2.786107
   4.18879     -2.864139     -2.864139
   4.34990     -2.931627     -2.931627
   4.51100     -2.985699     -2.985699
   4.67211     -3.022394     -3.022394
   4.83322     -3.041457     -3.041457
   4.99433     -3.045134     -3.045134
   5.15543     -3.036234     -3.036234
   5.31654     -3.018167     -3.018167
   5.47765     -2.995110     -2.995110
   5.63876     -2.969378     -2.969378
   5.79986     -2.944732     -2.944732
   5.96097     -2.923935     -2.923935
   6.12208     -2.909928     -2.909928
   6.28319     -2.904731     -2.904731
   6.28319     -2.904731     -2.904731
   6.36374     -2.904800     -2.904800
   6.44429     -2.905162     -2.905162
   6.52485     -2.905555     -2.905555
   6.60540     -2.905974     -2.905974
   6.68595     -2.906628     -2.906628
   6.76651     -2.907143     -2.907143
   6.84706     -2.907640     -2.907640
   6.92761     -2.908080     -2.908080
   7.00817     -2.908491     -2.908491
   7.08872     -2.908728     -2.908728
   7.16928     -2.908713     -2.908713
   7.24983     -2.908789     -2.908789
   7.33038     -2.908640     -2.908640
   7.41094     -2.908678     -2.908678
   7.49149     -2.908445     -2.908445
   7.57204     -2.908248     -2.908248
   7.65260     -2.908155     -2.908155
   7.73315     -2.908238     -2.908238
   7.81370     -2.908567     -2.908567
   7.89426     -2.909381     -2.909381
   7.97481     -2.910385     -2.910385
   8.05537     -2.911777     -2.911777
   8.13592     -2.913201     -2.913201
   8.21647     -2.915431     -2.915431
   8.29703     -2.918072     -2.918072
   8.37758     -2.921316     -2.921316
   8.45813     -2.924688     -2.924688
   8.53869     -2.928601     -2.928601
   8.61924     -2.932949     -2.932949
   8.69980     -2.937754     -2.937754
   8.78035     -2.943251     -2.943251
   8.86090     -2.948940     -2.948940
   8.94146     -2.955042     -2.955042
   9.02201     -2.961255     -2.961255
   9.10256     -2.967279     -2.967279
   9.18312     -2.972661     -2.972661
   9.26367     -2.976933     -2.976933
   9.34422     -2.980105     -2.980105
   9.42478     -2.981186     -2.981186
   9.42478     -2.981186     -2.981186
   9.63015     -3.019177     -3.019177
   9.83552     -3.078144     -3.078144
  10.04089     -3.135452     -3.135452
  10.24627     -3.173544     -3.173544
  10.45164     -3.138651     -3.138651
  10.65701     -3.056229     -3.056229
  10.86238     -2.959609     -2.959609
  11.06776     -2.854170     -2.854170
  11.27313     -2.740568     -2.740568
  11.47850     -2.621047     -2.621047
  11.68387     -2.497158     -2.497158
  11.88925     -2.384955     -2.384955
  12.09462     -2.315173     -2.315173
  12.29999     -2.244646     -2.244646
  12.50536     -2.168838     -2.168838
  12.71074     -2.088277     -2.088277
  12.91611     -2.006992     -2.006992
  13.12148     -1.929379     -1.929379
  13.32685     -1.864178     -1.864178
  13.53222     -1.825936     -1.825936
  13.73760     -1.820942     -1.820942
  13.94297     -1.840344     -1.840344
  14.14834     -1.876837     -1.876837
  14.35371     -1.929379     -1.929379
  14.55909     -1.998055     -1.998055
  14.76446     -2.079472     -2.079472
  14.96983     -2.166643     -2.166643
  15.17520     -2.246856     -2.246856
  15.38058     -2.316975     -2.316975
  15.58595     -2.384955     -2.384955
  15.79132     -2.503957     -2.503957
  15.99669     -2.643185     -2.643185
  16.20207     -2.786271     -2.786271
  16.40744     -2.925102     -2.925102
  16.61281     -3.046797     -3.046797
  16.81818     -3.131673     -3.131673
  17.02355     -3.169133     -3.169133
  17.22893     -3.172272     -3.172272
  17.43430     -3.156040     -3.156040
  17.43430     -3.156040     -3.156040
  17.60518     -3.210892     -3.210892
  17.77606     -3.262061     -3.262061
  17.94694     -3.304943     -3.304943
  18.11782     -3.327967     -3.327967
  18.28870     -3.274157     -3.274157
  18.45958     -3.166372     -3.166372
  18.63046     -3.047774     -3.047774
  18.80134     -2.926891     -2.926891
  18.97222     -2.806963     -2.806963
  19.14310     -2.692714     -2.692714
  19.31398     -2.586601     -2.586601
  19.48486     -2.493784     -2.493784
  19.65574     -2.420246     -2.420246
  19.82662     -2.373713     -2.373713
  19.99750     -2.367633     -2.367633
  20.16838     -2.405957     -2.405957
  20.33926     -2.476636     -2.476636
  20.51014     -2.567127     -2.567127
  20.68102     -2.664266     -2.664266
  20.85190     -2.760324     -2.760324
  21.02278     -2.850449     -2.850449
  21.19366     -2.930393     -2.930393
  21.36454     -2.994528     -2.994528
  21.53542     -3.023428     -3.023428
  21.70630     -2.981774     -2.981774
  21.87718     -2.889017     -2.889017
  22.04806     -2.774701     -2.774701
  22.21894     -2.645560     -2.645560
  22.38982     -2.507630     -2.507630
  22.56070     -2.359971     -2.359971
  22.73158     -2.208937     -2.208937
  22.90246     -2.055777     -2.055777
  23.07334     -1.905222     -1.905222
  23.24422     -1.760087     -1.760087
  23.41510     -1.625239     -1.625239
  23.58598     -1.506232     -1.506232
  23.75686     -1.411910     -1.411910
  23.92774     -1.350993     -1.350993
  24.09862     -1.329294     -1.329294
  24.09862     -1.329294     -1.329294
  24.23815     -1.339857     -1.339857
  24.37767     -1.372102     -1.372102
  24.51719     -1.420761     -1.420761
  24.65672     -1.489709     -1.489709
  24.79624     -1.572321     -1.572321
  24.93576     -1.663848     -1.663848
  25.07528     -1.762113     -1.762113
  25.21481     -1.865827     -1.865827
  25.35433     -1.968997     -1.968997
  25.49385     -2.070404     -2.070404
  25.63338     -2.166415     -2.166415
  25.77290     -2.257082     -2.257082
  25.91242     -2.335257     -2.335257
  26.05195     -2.402295     -2.402295
  26.19147     -2.457086     -2.457086
  26.33099     -2.499888     -2.499888
  26.47051     -2.531757     -2.531757
  26.61004     -2.553372     -2.553372
  26.74956     -2.563673     -2.563673
  26.88908     -2.563673     -2.563673
  27.02861     -2.553372     -2.553372
  27.16813     -2.531757     -2.531757
  27.30765     -2.499888     -2.499888
  27.44718     -2.457086     -2.457086
  27.58670     -2.402295     -2.402295
  27.72622     -2.335257     -2.335257
  27.86575     -2.257082     -2.257082
  28.00527     -2.166415     -2.166415
  28.14479     -2.070404     -2.070404
  28.28431     -1.968997     -1.968997
  28.42384     -1.865827     -1.865827
  28.56336     -1.762113     -1.762113
  28.70288     -1.663848     -1.663848
  28.84241     -1.572321     -1.572321
  28.98193     -1.489709     -1.489709
  29.12145     -1.420761     -1.420761
  29.26098     -1.372102     -1.372102
  29.40050     -1.339857     -1.339857
  29.54002     -1.329294     -1.329294
 
# Band-Index   10
  29.54002     -1.329294     -1.329294
  29.40050     -1.335456     -1.335456
  29.26098     -1.353221     -1.353221
  29.12145     -1.379922     -1.379922
  28.98193     -1.414800     -1.414800
  28.84241     -1.454635     -1.454635
  28.70288     -1.497276     -1.497276
  28.56336     -1.540764     -1.540764
  28.42384     -1.585265     -1.585265
  28.28431     -1.627879     -1.627879
  28.14479     -1.669461     -1.669461
  28.00527     -1.707259     -1.707259
  27.86575     -1.743590     -1.743590
  27.72622     -1.776716     -1.776716
  27.58670     -1.805902     -1.805902
  27.44718     -1.830785     -1.830785
  27.30765     -1.850739     -1.850739
  27.16813     -1.866158     -1.866158
  27.02861     -1.877428     -1.877428
  26.88908     -1.882652     -1.882652
  26.74956     -1.882652     -1.882652
  26.61004     -1.877428     -1.877428
  26.47051     -1.866158     -1.866158
  26.33099     -1.850739     -1.850739
  26.19147     -1.830785     -1.830785
  26.05195     -1.805902     -1.805902
  25.91242     -1.776716     -1.776716
  25.77290     -1.743590     -1.743590
  25.63338     -1.707259     -1.707259
  25.49385     -1.669461     -1.669461
  25.35433     -1.627879     -1.627879
  25.21481     -1.585265     -1.585265
  25.07528     -1.540764     -1.540764
  24.93576     -1.497276     -1.497276
  24.79624     -1.454635     -1.454635
  24.65672     -1.414800     -1.414800
  24.51719     -1.379922     -1.379922
  24.37767     -1.353221     -1.353221
  24.23815     -1.335456     -1.335456
  24.09862     -1.329294     -1.329294
  24.09862     -1.329294     -1.329294
  23.92774     -1.339483     -1.339483
  23.75686     -1.367981     -1.367981
  23.58598     -1.409015     -1.409015
  23.41510     -1.459217     -1.459217
  23.24422     -1.513984     -1.513984
  23.07334     -1.569510     -1.569510
  22.90246     -1.621200     -1.621200
  22.73158     -1.672102     -1.672102
  22.56070     -1.718289     -1.718289
  22.38982     -1.757240     -1.757240
  22.21894     -1.790636     -1.790636
  22.04806     -1.817234     -1.817234
  21.87718     -1.836178     -1.836178
  21.70630     -1.847311     -1.847311
  21.53542     -1.851427     -1.851427
  21.36454     -1.848607     -1.848607
  21.19366     -1.839944     -1.839944
  21.02278     -1.825202     -1.825202
  20.85190     -1.806024     -1.806024
  20.68102     -1.783074     -1.783074
  20.51014     -1.758057     -1.758057
  20.33926     -1.768399     -1.768399
  20.16838     -1.797659     -1.797659
  19.99750     -1.802695     -1.802695
  19.82662     -1.782208     -1.782208
  19.65574     -1.756853     -1.756853
  19.48486     -1.765551     -1.765551
  19.31398     -1.814173     -1.814173
  19.14310     -1.881364     -1.881364
  18.97222     -1.954905     -1.954905
  18.80134     -2.031027     -2.031027
  18.63046     -2.107073     -2.107073
  18.45958     -2.181100     -2.181100
  18.28870     -2.252886     -2.252886
  18.11782     -2.321927     -2.321927
  17.94694     -2.387810     -2.387810
  17.77606     -2.449399     -2.449399
  17.60518     -2.506268     -2.506268
  17.43430     -2.558108     -2.558108
  17.43430     -2.558108     -2.558108
  17.22893     -2.538187     -2.538187
  17.02355     -2.521455     -2.521455
  16.81818     -2.507084     -2.507084
  16.61281     -2.493283     -2.493283
  16.40744     -2.479155     -2.479155
  16.20207     -2.461772     -2.461772
  15.99669     -2.439073     -2.439073
  15.79132     -2.406424     -2.406424
  15.58595     -2.349336     -2.349336
  15.38058     -2.237747     -2.237747
  15.17520     -2.126431     -2.126431
  14.96983     -2.025325     -2.025325
  14.76446     -1.931887     -1.931887
  14.55909     -1.841633     -1.841633
  14.35371     -1.753031     -1.753031
  14.14834     -1.676351     -1.676351
  13.94297     -1.638487     -1.638487
  13.73760     -1.651653     -1.651653
  13.53222     -1.688770     -1.688770
  13.32685     -1.721772     -1.721772
  13.12148     -1.753031     -1.753031
  12.91611     -1.800397     -1.800397
  12.71074     -1.875390     -1.875390
  12.50536     -1.977751     -1.977751
  12.29999     -2.097967     -2.097967
  12.09462     -2.227342     -2.227342
  11.88925     -2.349336     -2.349336
  11.68387     -2.419696     -2.419696
  11.47850     -2.467071     -2.467071
  11.27313     -2.506789     -2.506789
  11.06776     -2.543404     -2.543404
  10.86238     -2.578676     -2.578676
  10.65701     -2.614527     -2.614527
  10.45164     -2.652407     -2.652407
  10.24627     -2.694121     -2.694121
  10.04089     -2.740955     -2.740955
   9.83552     -2.791421     -2.791421
   9.63015     -2.841551     -2.841551
   9.42478     -2.871904     -2.871904
   9.42478     -2.871904     -2.871904
   9.34422     -2.871056     -2.871056
   9.26367     -2.868617     -2.868617
   9.18312     -2.864481     -2.864481
   9.10256     -2.858537     -2.858537
   9.02201     -2.850695     -2.850695
   8.94146     -2.840906     -2.840906
   8.86090     -2.829278     -2.829278
   8.78035     -2.816151     -2.816151
   8.69980     -2.801319     -2.801319
   8.61924     -2.785439     -2.785439
   8.53869     -2.768718     -2.768718
   8.45813     -2.751422     -2.751422
   8.37758     -2.733850     -2.733850
   8.29703     -2.715703     -2.715703
   8.21647     -2.697828     -2.697828
   8.13592     -2.680000     -2.680000
   8.05537     -2.662937     -2.662937
   7.97481     -2.645422     -2.645422
   7.89426     -2.628032     -2.628032
   7.81370     -2.611445     -2.611445
   7.73315     -2.594353     -2.594353
   7.65260     -2.577319     -2.577319
   7.57204     -2.560331     -2.560331
   7.49149     -2.543509     -2.543509
   7.41094     -2.527435     -2.527435
   7.33038     -2.510668     -2.510668
   7.24983     -2.494433     -2.494433
   7.16928     -2.477370     -2.477370
   7.08872     -2.461954     -2.461954
   7.00817     -2.447140     -2.447140
   6.92761     -2.431097     -2.431097
   6.84706     -2.418189     -2.418189
   6.76651     -2.406520     -2.406520
   6.68595     -2.396270     -2.396270
   6.60540     -2.386581     -2.386581
   6.52485     -2.379676     -2.379676
   6.44429     -2.372692     -2.372692
   6.36374     -2.369660     -2.369660
   6.28319     -2.368721     -2.368721
   6.28319     -2.368721     -2.368721
   6.12208     -2.365173     -2.365173
   5.96097     -2.354795     -2.354795
   5.79986     -2.337725     -2.337725
   5.63876     -2.314648     -2.314648
   5.47765     -2.286642     -2.286642
   5.31654     -2.253692     -2.253692
   5.15543     -2.216922     -2.216922
   4.99433     -2.177044     -2.177044
   4.83322     -2.134719     -2.134719
   4.67211     -2.093539     -2.093539
   4.51100     -2.048107     -2.048107
   4.34990     -2.001887     -2.001887
   4.18879     -1.953632     -1.953632
   4.02768     -1.907277     -1.907277
   3.86658     -1.861435     -1.861435
   3.70547     -1.820067     -1.820067
   3.54436     -1.786389     -1.786389
   3.38325     -1.777029     -1.777029
   3.22215     -1.766900     -1.766900
   3.06104     -1.741905     -1.741905
   2.89993     -1.697421     -1.697421
   2.73882     -1.642034     -1.642034
   2.57772     -1.586725     -1.586725
   2.41661     -1.537744     -1.537744
   2.25550     -1.498493     -1.498493
   2.09440     -1.474474     -1.474474
   1.93329     -1.452589     -1.452589
   1.77218     -1.431570     -1.431570
   1.61107     -1.413619     -1.413619
   1.44997     -1.397409     -1.397409
   1.28886     -1.382845     -1.382845
   1.12775     -1.369860     -1.369860
   0.96664     -1.359977     -1.359977
   0.80554     -1.350251     -1.350251
   0.64443     -1.342199     -1.342199
   0.48332     -1.335770     -1.335770
   0.32221     -1.332412     -1.332412
   0.16111     -1.330227     -1.330227
   0.00000     -1.329294     -1.329294
 
# Band-Index   11
   0.00000     -1.328896     -1.328896
   0.16111     -1.329466     -1.329466
   0.32221     -1.330124     -1.330124
   0.48332     -1.331098     -1.331098
   0.64443     -1.334541     -1.334541
   0.80554     -1.339244     -1.339244
   0.96664     -1.345613     -1.345613
   1.12775     -1.352466     -1.352466
   1.28886     -1.363021     -1.363021
   1.44997     -1.376076     -1.376076
   1.61107     -1.391999     -1.391999
   1.77218     -1.411211     -1.411211
   1.93329     -1.435575     -1.435575
   2.09440     -1.463410     -1.463410
   2.25550     -1.496973     -1.496973
   2.41661     -1.524809     -1.524809
   2.57772     -1.553499     -1.553499
   2.73882     -1.584612     -1.584612
   2.89993     -1.620289     -1.620289
   3.06104     -1.656998     -1.656998
   3.22215     -1.695205     -1.695205
   3.38325     -1.734316     -1.734316
   3.54436     -1.776431     -1.776431
   3.70547     -1.804788     -1.804788
   3.86658     -1.830299     -1.830299
   4.02768     -1.864728     -1.864728
   4.18879     -1.903379     -1.903379
   4.34990     -1.946315     -1.946315
   4.51100     -1.989521     -1.989521
   4.67211     -2.033697     -2.033697
   4.83322     -2.075710     -2.075710
   4.99433     -2.120524     -2.120524
   5.15543     -2.164879     -2.164879
   5.31654     -2.208049     -2.208049
   5.47765     -2.249229     -2.249229
   5.63876     -2.286804     -2.286804
   5.79986     -2.319816     -2.319816
   5.96097     -2.345906     -2.345906
   6.12208     -2.362715     -2.362715
   6.28319     -2.368617     -2.368617
   6.28319     -2.368617     -2.368617
   6.36374     -2.368694     -2.368694
   6.44429     -2.368699     -2.368699
   6.52485     -2.369664     -2.369664
   6.60540     -2.369679     -2.369679
   6.68595     -2.371510     -2.371510
   6.76651     -2.371474     -2.371474
   6.84706     -2.371385     -2.371385
   6.92761     -2.371210     -2.371210
   7.00817     -2.371185     -2.371185
   7.08872     -2.370712     -2.370712
   7.16928     -2.369909     -2.369909
   7.24983     -2.370129     -2.370129
   7.33038     -2.368441     -2.368441
   7.41094     -2.366242     -2.366242
   7.49149     -2.362893     -2.362893
   7.57204     -2.358734     -2.358734
   7.65260     -2.353364     -2.353364
   7.73315     -2.346583     -2.346583
   7.81370     -2.338208     -2.338208
   7.89426     -2.327753     -2.327753
   7.97481     -2.315778     -2.315778
   8.05537     -2.301835     -2.301835
   8.13592     -2.284948     -2.284948
   8.21647     -2.267034     -2.267034
   8.29703     -2.247206     -2.247206
   8.37758     -2.225888     -2.225888
   8.45813     -2.202306     -2.202306
   8.53869     -2.177698     -2.177698
   8.61924     -2.151983     -2.151983
   8.69980     -2.125504     -2.125504
   8.78035     -2.099074     -2.099074
   8.86090     -2.072479     -2.072479
   8.94146     -2.046619     -2.046619
   9.02201     -2.022441     -2.022441
   9.10256     -2.000496     -2.000496
   9.18312     -1.981876     -1.981876
   9.26367     -1.967589     -1.967589
   9.34422     -1.958695     -1.958695
   9.42478     -1.955821     -1.955821
   9.42478     -1.955821     -1.955821
   9.63015     -1.897964     -1.897964
   9.83552     -1.843900     -1.843900
  10.04089     -1.793656     -1.793656
  10.24627     -1.748902     -1.748902
  10.45164     -1.710449     -1.710449
  10.65701     -1.677273     -1.677273
  10.86238     -1.647924     -1.647924
  11.06776     -1.623464     -1.623464
  11.27313     -1.602481     -1.602481
  11.47850     -1.585259     -1.585259
  11.68387     -1.569522     -1.569522
  11.88925     -1.555501     -1.555501
  12.09462     -1.543209     -1.543209
  12.29999     -1.527755     -1.527755
  12.50536     -1.507455     -1.507455
  12.71074     -1.478344     -1.478344
  12.91611     -1.436117     -1.436117
  13.12148     -1.389393     -1.389393
  13.32685     -1.356013     -1.356013
  13.53222     -1.353097     -1.353097
  13.73760     -1.379130     -1.379130
  13.94297     -1.409371     -1.409371
  14.14834     -1.409269     -1.409269
  14.35371     -1.389393     -1.389393
  14.55909     -1.372198     -1.372198
  14.76446     -1.372477     -1.372477
  14.96983     -1.393481     -1.393481
  15.17520     -1.435067     -1.435067
  15.38058     -1.490451     -1.490451
  15.58595     -1.555501     -1.555501
  15.79132     -1.624119     -1.624119
  15.99669     -1.694895     -1.694895
  16.20207     -1.764948     -1.764948
  16.40744     -1.835095     -1.835095
  16.61281     -1.904849     -1.904849
  16.81818     -1.973904     -1.973904
  17.02355     -2.041457     -2.041457
  17.22893     -2.106875     -2.106875
  17.43430     -2.169323     -2.169323
  17.43430     -2.169323     -2.169323
  17.60518     -2.128957     -2.128957
  17.77606     -2.085548     -2.085548
  17.94694     -2.039140     -2.039140
  18.11782     -1.990897     -1.990897
  18.28870     -1.940905     -1.940905
  18.45958     -1.890891     -1.890891
  18.63046     -1.841762     -1.841762
  18.80134     -1.795344     -1.795344
  18.97222     -1.753475     -1.753475
  19.14310     -1.720409     -1.720409
  19.31398     -1.695316     -1.695316
  19.48486     -1.680906     -1.680906
  19.65574     -1.675842     -1.675842
  19.82662     -1.680560     -1.680560
  19.99750     -1.692390     -1.692390
  20.16838     -1.711050     -1.711050
  20.33926     -1.732766     -1.732766
  20.51014     -1.728556     -1.728556
  20.68102     -1.684644     -1.684644
  20.85190     -1.640579     -1.640579
  21.02278     -1.598711     -1.598711
  21.19366     -1.560697     -1.560697
  21.36454     -1.525734     -1.525734
  21.53542     -1.492811     -1.492811
  21.70630     -1.465734     -1.465734
  21.87718     -1.441479     -1.441479
  22.04806     -1.420281     -1.420281
  22.21894     -1.401043     -1.401043
  22.38982     -1.385287     -1.385287
  22.56070     -1.372960     -1.372960
  22.73158     -1.361542     -1.361542
  22.90246     -1.351912     -1.351912
  23.07334     -1.345464     -1.345464
  23.24422     -1.339073     -1.339073
  23.41510     -1.333969     -1.333969
  23.58598     -1.332690     -1.332690
  23.75686     -1.331229     -1.331229
  23.92774     -1.329666     -1.329666
  24.09862     -1.328896     -1.328896
  24.09862     -1.328896     -1.328896
  24.23815     -1.335456     -1.335456
  24.37767     -1.353221     -1.353221
  24.51719     -1.379922     -1.379922
  24.65672     -1.414800     -1.414800
  24.79624     -1.454635     -1.454635
  24.93576     -1.497276     -1.497276
  25.07528     -1.540764     -1.540764
  25.21481     -1.585265     -1.585265
  25.35433     -1.627879     -1.627879
  25.49385     -1.669461     -1.669461
  25.63338     -1.707259     -1.707259
  25.77290     -1.743590     -1.743590
  25.91242     -1.776716     -1.776716
  26.05195     -1.805902     -1.805902
  26.19147     -1.830785     -1.830785
  26.33099     -1.850739     -1.850739
  26.47051     -1.866158     -1.866158
  26.61004     -1.877428     -1.877428
  26.74956     -1.882652     -1.882652
  26.88908     -1.882652     -1.882652
  27.02861     -1.877428     -1.877428
  27.16813     -1.866158     -1.866158
  27.30765     -1.850739     -1.850739
  27.44718     -1.830785     -1.830785
  27.58670     -1.805902     -1.805902
  27.72622     -1.776716     -1.776716
  27.86575     -1.743590     -1.743590
  28.00527     -1.707259     -1.707259
  28.14479     -1.669461     -1.669461
  28.28431     -1.627879     -1.627879
  28.42384     -1.585265     -1.585265
  28.56336     -1.540764     -1.540764
  28.70288     -1.497276     -1.497276
  28.84241     -1.454635     -1.454635
  28.98193     -1.414800     -1.414800
  29.12145     -1.379922     -1.379922
  29.26098     -1.353221     -1.353221
  29.40050     -1.335456     -1.335456
  29.54002     -1.328896     -1.328896
 
# Band-Index   12
  29.54002     -0.642866     -0.642866
  29.40050     -0.636823     -0.636823
  29.26098     -0.620237     -0.620237
  29.12145     -0.595120     -0.595120
  28.98193     -0.561162     -0.561162
  28.84241     -0.522448     -0.522448
  28.70288     -0.480834     -0.480834
  28.56336     -0.437602     -0.437602
  28.42384     -0.394934     -0.394934
  28.28431     -0.352207     -0.352207
  28.14479     -0.311508     -0.311508
  28.00527     -0.273131     -0.273131
  27.86575     -0.238066     -0.238066
  27.72622     -0.206859     -0.206859
  27.58670     -0.179435     -0.179435
  27.44718     -0.156107     -0.156107
  27.30765     -0.136847     -0.136847
  27.16813     -0.122447     -0.122447
  27.02861     -0.113624     -0.113624
  26.88908     -0.108774     -0.108774
  26.74956     -0.108774     -0.108774
  26.61004     -0.113624     -0.113624
  26.47051     -0.122447     -0.122447
  26.33099     -0.136847     -0.136847
  26.19147     -0.156107     -0.156107
  26.05195     -0.179435     -0.179435
  25.91242     -0.206859     -0.206859
  25.77290     -0.238066     -0.238066
  25.63338     -0.273131     -0.273131
  25.49385     -0.311508     -0.311508
  25.35433     -0.352207     -0.352207
  25.21481     -0.394934     -0.394934
  25.07528     -0.437602     -0.437602
  24.93576     -0.480834     -0.480834
  24.79624     -0.522448     -0.522448
  24.65672     -0.561162     -0.561162
  24.51719     -0.595120     -0.595120
  24.37767     -0.620237     -0.620237
  24.23815     -0.636823     -0.636823
  24.09862     -0.642866     -0.642866
  24.09862     -0.642866     -0.642866
  23.92774     -0.640510     -0.640510
  23.75686     -0.631887     -0.631887
  23.58598     -0.621145     -0.621145
  23.41510     -0.612999     -0.612999
  23.24422     -0.609464     -0.609464
  23.07334     -0.611028     -0.611028
  22.90246     -0.618411     -0.618411
  22.73158     -0.631038     -0.631038
  22.56070     -0.649204     -0.649204
  22.38982     -0.669803     -0.669803
  22.21894     -0.694847     -0.694847
  22.04806     -0.725185     -0.725185
  21.87718     -0.759223     -0.759223
  21.70630     -0.797126     -0.797126
  21.53542     -0.838961     -0.838961
  21.36454     -0.884941     -0.884941
  21.19366     -0.936684     -0.936684
  21.02278     -0.991161     -0.991161
  20.85190     -1.050329     -1.050329
  20.68102     -1.112808     -1.112808
  20.51014     -1.179277     -1.179277
  20.33926     -1.247673     -1.247673
  20.16838     -1.319037     -1.319037
  19.99750     -1.389042     -1.389042
  19.82662     -1.452534     -1.452534
  19.65574     -1.491602     -1.491602
  19.48486     -1.475172     -1.475172
  19.31398     -1.410225     -1.410225
  19.14310     -1.325505     -1.325505
  18.97222     -1.235212     -1.235212
  18.80134     -1.146277     -1.146277
  18.63046     -1.059602     -1.059602
  18.45958     -0.978116     -0.978116
  18.28870     -0.901489     -0.901489
  18.11782     -0.831527     -0.831527
  17.94694     -0.765974     -0.765974
  17.77606     -0.708309     -0.708309
  17.60518     -0.656650     -0.656650
  17.43430     -0.611010     -0.611010
  17.43430     -0.611010     -0.611010
  17.22893     -0.597887     -0.597887
  17.02355     -0.589265     -0.589265
  16.81818     -0.586776     -0.586776
  16.61281     -0.591646     -0.591646
  16.40744     -0.604179     -0.604179
  16.20207     -0.622233     -0.622233
  15.99669     -0.644798     -0.644798
  15.79132     -0.668395     -0.668395
  15.58595     -0.692226     -0.692226
  15.38058     -0.711334     -0.711334
  15.17520     -0.723489     -0.723489
  14.96983     -0.724395     -0.724395
  14.76446     -0.709978     -0.709978
  14.55909     -0.683723     -0.683723
  14.35371     -0.649461     -0.649461
  14.14834     -0.616803     -0.616803
  13.94297     -0.610094     -0.610094
  13.73760     -0.637471     -0.637471
  13.53222     -0.661380     -0.661380
  13.32685     -0.666338     -0.666338
  13.12148     -0.649461     -0.649461
  12.91611     -0.617055     -0.617055
  12.71074     -0.584548     -0.584548
  12.50536     -0.577730     -0.577730
  12.29999     -0.604619     -0.604619
  12.09462     -0.644640     -0.644640
  11.88925     -0.692226     -0.692226
  11.68387     -0.747815     -0.747815
  11.47850     -0.810424     -0.810424
  11.27313     -0.877585     -0.877585
  11.06776     -0.948590     -0.948590
  10.86238     -1.020655     -1.020655
  10.65701     -1.091658     -1.091658
  10.45164     -1.157608     -1.157608
  10.24627     -1.214769     -1.214769
  10.04089     -1.260444     -1.260444
   9.83552     -1.291790     -1.291790
   9.63015     -1.306785     -1.306785
   9.42478     -1.305889     -1.305889
   9.42478     -1.305889     -1.305889
   9.34422     -1.302127     -1.302127
   9.26367     -1.291240     -1.291240
   9.18312     -1.273905     -1.273905
   9.10256     -1.251029     -1.251029
   9.02201     -1.223631     -1.223631
   8.94146     -1.192248     -1.192248
   8.86090     -1.158617     -1.158617
   8.78035     -1.123001     -1.123001
   8.69980     -1.085542     -1.085542
   8.61924     -1.047982     -1.047982
   8.53869     -1.010129     -1.010129
   8.45813     -0.972364     -0.972364
   8.37758     -0.935278     -0.935278
   8.29703     -0.897687     -0.897687
   8.21647     -0.861995     -0.861995
   8.13592     -0.827480     -0.827480
   8.05537     -0.794327     -0.794327
   7.97481     -0.762741     -0.762741
   7.89426     -0.732845     -0.732845
   7.81370     -0.705286     -0.705286
   7.73315     -0.679100     -0.679100
   7.65260     -0.654901     -0.654901
   7.57204     -0.632744     -0.632744
   7.49149     -0.613138     -0.613138
   7.41094     -0.595591     -0.595591
   7.33038     -0.578861     -0.578861
   7.24983     -0.565934     -0.565934
   7.16928     -0.553889     -0.553889
   7.08872     -0.544103     -0.544103
   7.00817     -0.535642     -0.535642
   6.92761     -0.528667     -0.528667
   6.84706     -0.523018     -0.523018
   6.76651     -0.518510     -0.518510
   6.68595     -0.514980     -0.514980
   6.60540     -0.511998     -0.511998
   6.52485     -0.510002     -0.510002
   6.44429     -0.508184     -0.508184
   6.36374     -0.505387     -0.505387
   6.28319     -0.505144     -0.505144
   6.28319     -0.505144     -0.505144
   6.12208     -0.507240     -0.507240
   5.96097     -0.509156     -0.509156
   5.79986     -0.513556     -0.513556
   5.63876     -0.517839     -0.517839
   5.47765     -0.555458     -0.555458
   5.31654     -0.609046     -0.609046
   5.15543     -0.671636     -0.671636
   4.99433     -0.742049     -0.742049
   4.83322     -0.820204     -0.820204
   4.67211     -0.904405     -0.904405
   4.51100     -0.993542     -0.993542
   4.34990     -1.086324     -1.086324
   4.18879     -1.180473     -1.180473
   4.02768     -1.271286     -1.271286
   3.86658     -1.356183     -1.356183
   3.70547     -1.430108     -1.430108
   3.54436     -1.482112     -1.482112
   3.38325     -1.505140     -1.505140
   3.22215     -1.501692     -1.501692
   3.06104     -1.477229     -1.477229
   2.89993     -1.437669     -1.437669
   2.73882     -1.384838     -1.384838
   2.57772     -1.319875     -1.319875
   2.41661     -1.242332     -1.242332
   2.25550     -1.156764     -1.156764
   2.09440     -1.067578     -1.067578
   1.93329     -0.977570     -0.977570
   1.77218     -0.890512     -0.890512
   1.61107     -0.811901     -0.811901
   1.44997     -0.742117     -0.742117
   1.28886     -0.683125     -0.683125
   1.12775     -0.645400     -0.645400
   0.96664     -0.644845     -0.644845
   0.80554     -0.644890     -0.644890
   0.64443     -0.644958     -0.644958
   0.48332     -0.645146     -0.645146
   0.32221     -0.644100     -0.644100
   0.16111     -0.644248     -0.644248
   0.00000     -0.642866     -0.642866
 
# Band-Index   13
   0.00000     -0.642866     -0.642866
   0.16111     -0.636803     -0.636803
   0.32221     -0.618003     -0.618003
   0.48332     -0.598369     -0.598369
   0.64443     -0.587352     -0.587352
   0.80554     -0.588572     -0.588572
   0.96664     -0.605545     -0.605545
   1.12775     -0.637103     -0.637103
   1.28886     -0.645681     -0.645681
   1.44997     -0.646896     -0.646896
   1.61107     -0.648386     -0.648386
   1.77218     -0.650033     -0.650033
   1.93329     -0.651636     -0.651636
   2.09440     -0.653527     -0.653527
   2.25550     -0.653509     -0.653509
   2.41661     -0.653950     -0.653950
   2.57772     -0.653576     -0.653576
   2.73882     -0.652204     -0.652204
   2.89993     -0.649673     -0.649673
   3.06104     -0.646049     -0.646049
   3.22215     -0.641134     -0.641134
   3.38325     -0.634978     -0.634978
   3.54436     -0.627873     -0.627873
   3.70547     -0.619788     -0.619788
   3.86658     -0.610755     -0.610755
   4.02768     -0.601354     -0.601354
   4.18879     -0.592657     -0.592657
   4.34990     -0.582304     -0.582304
   4.51100     -0.572420     -0.572420
   4.67211     -0.562677     -0.562677
   4.83322     -0.553271     -0.553271
   4.99433     -0.544414     -0.544414
   5.15543     -0.536843     -0.536843
   5.31654     -0.529390     -0.529390
   5.47765     -0.523211     -0.523211
   5.63876     -0.510711     -0.510711
   5.79986     -0.475555     -0.475555
   5.96097     -0.450230     -0.450230
   6.12208     -0.434273     -0.434273
   6.28319     -0.426990     -0.426990
   6.28319     -0.426990     -0.426990
   6.36374     -0.427134     -0.427134
   6.44429     -0.429189     -0.429189
   6.52485     -0.430086     -0.430086
   6.60540     -0.431135     -0.431135
   6.68595     -0.433477     -0.433477
   6.76651     -0.435099     -0.435099
   6.84706     -0.436966     -0.436966
   6.92761     -0.439042     -0.439042
   7.00817     -0.441346     -0.441346
   7.08872     -0.443711     -0.443711
   7.16928     -0.445948     -0.445948
   7.24983     -0.448457     -0.448457
   7.33038     -0.450786     -0.450786
   7.41094     -0.453576     -0.453576
   7.49149     -0.456044     -0.456044
   7.57204     -0.457968     -0.457968
   7.65260     -0.460452     -0.460452
   7.73315     -0.462920     -0.462920
   7.81370     -0.465376     -0.465376
   7.89426     -0.467769     -0.467769
   7.97481     -0.470198     -0.470198
   8.05537     -0.472605     -0.472605
   8.13592     -0.474917     -0.474917
   8.21647     -0.477257     -0.477257
   8.29703     -0.479543     -0.479543
   8.37758     -0.482210     -0.482210
   8.45813     -0.483291     -0.483291
   8.53869     -0.485367     -0.485367
   8.61924     -0.487328     -0.487328
   8.69980     -0.489159     -0.489159
   8.78035     -0.490877     -0.490877
   8.86090     -0.492379     -0.492379
   8.94146     -0.493727     -0.493727
   9.02201     -0.494937     -0.494937
   9.10256     -0.495901     -0.495901
   9.18312     -0.496656     -0.496656
   9.26367     -0.497194     -0.497194
   9.34422     -0.497627     -0.497627
   9.42478     -0.498642     -0.498642
   9.42478     -0.498642     -0.498642
   9.63015     -0.474331     -0.474331
   9.83552     -0.453130     -0.453130
  10.04089     -0.434615     -0.434615
  10.24627     -0.418596     -0.418596
  10.45164     -0.405949     -0.405949
  10.65701     -0.396904     -0.396904
  10.86238     -0.391556     -0.391556
  11.06776     -0.390431     -0.390431
  11.27313     -0.393611     -0.393611
  11.47850     -0.402371     -0.402371
  11.68387     -0.416446     -0.416446
  11.88925     -0.435462     -0.435462
  12.09462     -0.460649     -0.460649
  12.29999     -0.489811     -0.489811
  12.50536     -0.520518     -0.520518
  12.71074     -0.530107     -0.530107
  12.91611     -0.520224     -0.520224
  13.12148     -0.513590     -0.513590
  13.32685     -0.514212     -0.514212
  13.53222     -0.522475     -0.522475
  13.73760     -0.537715     -0.537715
  13.94297     -0.554089     -0.554089
  14.14834     -0.542597     -0.542597
  14.35371     -0.513590     -0.513590
  14.55909     -0.486725     -0.486725
  14.76446     -0.465954     -0.465954
  14.96983     -0.451088     -0.451088
  15.17520     -0.442026     -0.442026
  15.38058     -0.436938     -0.436938
  15.58595     -0.435462     -0.435462
  15.79132     -0.436885     -0.436885
  15.99669     -0.440212     -0.440212
  16.20207     -0.444043     -0.444043
  16.40744     -0.447944     -0.447944
  16.61281     -0.450636     -0.450636
  16.81818     -0.451157     -0.451157
  17.02355     -0.448600     -0.448600
  17.22893     -0.444623     -0.444623
  17.43430     -0.441344     -0.441344
  17.43430     -0.441344     -0.441344
  17.60518     -0.453451     -0.453451
  17.77606     -0.470159     -0.470159
  17.94694     -0.490865     -0.490865
  18.11782     -0.515648     -0.515648
  18.28870     -0.542210     -0.542210
  18.45958     -0.570415     -0.570415
  18.63046     -0.597950     -0.597950
  18.80134     -0.623335     -0.623335
  18.97222     -0.643377     -0.643377
  19.14310     -0.658171     -0.658171
  19.31398     -0.663984     -0.663984
  19.48486     -0.659725     -0.659725
  19.65574     -0.644644     -0.644644
  19.82662     -0.617303     -0.617303
  19.99750     -0.582880     -0.582880
  20.16838     -0.542045     -0.542045
  20.33926     -0.496258     -0.496258
  20.51014     -0.449480     -0.449480
  20.68102     -0.403004     -0.403004
  20.85190     -0.358733     -0.358733
  21.02278     -0.318028     -0.318028
  21.19366     -0.282691     -0.282691
  21.36454     -0.253510     -0.253510
  21.53542     -0.232141     -0.232141
  21.70630     -0.219007     -0.219007
  21.87718     -0.214602     -0.214602
  22.04806     -0.218974     -0.218974
  22.21894     -0.231853     -0.231853
  22.38982     -0.253853     -0.253853
  22.56070     -0.285265     -0.285265
  22.73158     -0.322450     -0.322450
  22.90246     -0.366041     -0.366041
  23.07334     -0.416226     -0.416226
  23.24422     -0.466472     -0.466472
  23.41510     -0.517634     -0.517634
  23.58598     -0.565709     -0.565709
  23.75686     -0.606153     -0.606153
  23.92774     -0.633308     -0.633308
  24.09862     -0.642866     -0.642866
  24.09862     -0.642866     -0.642866
  24.23815     -0.636823     -0.636823
  24.37767     -0.620237     -0.620237
  24.51719     -0.595120     -0.595120
  24.65672     -0.561162     -0.561162
  24.79624     -0.522448     -0.522448
  24.93576     -0.480834     -0.480834
  25.07528     -0.437602     -0.437602
  25.21481     -0.394934     -0.394934
  25.35433     -0.352207     -0.352207
  25.49385     -0.311508     -0.311508
  25.63338     -0.273131     -0.273131
  25.77290     -0.238066     -0.238066
  25.91242     -0.206859     -0.206859
  26.05195     -0.179435     -0.179435
  26.19147     -0.156107     -0.156107
  26.33099     -0.136847     -0.136847
  26.47051     -0.122447     -0.122447
  26.61004     -0.113624     -0.113624
  26.74956     -0.108774     -0.108774
  26.88908     -0.108774     -0.108774
  27.02861     -0.113624     -0.113624
  27.16813     -0.122447     -0.122447
  27.30765     -0.136847     -0.136847
  27.44718     -0.156107     -0.156107
  27.58670     -0.179435     -0.179435
  27.72622     -0.206859     -0.206859
  27.86575     -0.238066     -0.238066
  28.00527     -0.273131     -0.273131
  28.14479     -0.311508     -0.311508
  28.28431     -0.352207     -0.352207
  28.42384     -0.394934     -0.394934
  28.56336     -0.437602     -0.437602
  28.70288     -0.480834     -0.480834
  28.84241     -0.522448     -0.522448
  28.98193     -0.561162     -0.561162
  29.12145     -0.595120     -0.595120
  29.26098     -0.620237     -0.620237
  29.40050     -0.636823     -0.636823
  29.54002     -0.642866     -0.642866
 
# Band-Index   14
  29.54002      2.178149      2.178149
  29.40050      2.191172      2.191172
  29.26098      2.229663      2.229663
  29.12145      2.292907      2.292907
  28.98193      2.376804      2.376804
  28.84241      2.479232      2.479232
  28.70288      2.598089      2.598089
  28.56336      2.730397      2.730397
  28.42384      2.871294      2.871294
  28.28431      3.021280      3.021280
  28.14479      3.175527      3.175528
  28.00527      3.333994      3.333994
  27.86575      3.493500      3.493500
  27.72622      3.653322      3.653322
  27.58670      3.811775      3.811776
  27.44718      3.967850      3.967850
  27.30765      4.118832      4.118831
  27.16813      4.263432      4.263432
  27.02861      4.399901      4.399900
  26.88908      4.526427      4.526426
  26.74956      4.526426      4.526428
  26.61004      4.399900      4.399900
  26.47051      4.263432      4.263434
  26.33099      4.118832      4.118832
  26.19147      3.967850      3.967850
  26.05195      3.811775      3.811775
  25.91242      3.653323      3.653322
  25.77290      3.493500      3.493500
  25.63338      3.333994      3.333994
  25.49385      3.175527      3.175527
  25.35433      3.021280      3.021280
  25.21481      2.871294      2.871294
  25.07528      2.730397      2.730397
  24.93576      2.598089      2.598089
  24.79624      2.479232      2.479232
  24.65672      2.376804      2.376804
  24.51719      2.292907      2.292907
  24.37767      2.229663      2.229663
  24.23815      2.191172      2.191172
  24.09862      2.178149      2.178149
  24.09862      2.178149      2.178149
  23.92774      2.197560      2.197560
  23.75686      2.254932      2.254932
  23.58598      2.347017      2.347017
  23.41510      2.468849      2.468849
  23.24422      2.615387      2.615387
  23.07334      2.781985      2.781985
  22.90246      2.964482      2.964482
  22.73158      3.155866      3.155866
  22.56070      3.354703      3.354703
  22.38982      3.558302      3.558302
  22.21894      3.763565      3.763565
  22.04806      3.967760      3.967760
  21.87718      4.168711      4.168711
  21.70630      4.362355      4.362356
  21.53542      4.543907      4.543906
  21.36454      4.702046      4.702038
  21.19366      4.825454      4.825448
  21.02278      4.903732      4.903731
  20.85190      4.942099      4.942282
  20.68102      4.953452      4.953437
  20.51014      4.950296      4.950283
  20.33926      4.941252      4.941263
  20.16838      4.931801      4.931844
  19.99750      4.926947      4.926930
  19.82662      4.928620      4.928623
  19.65574      4.939256      4.939256
  19.48486      4.958378      4.958378
  19.31398      4.982106      4.982106
  19.14310      5.000921      5.000921
  18.97222      5.003277      5.003278
  18.80134      4.984972      4.984971
  18.63046      4.954136      4.954135
  18.45958      4.917761      4.917761
  18.28870      4.879832      4.879832
  18.11782      4.842664      4.842664
  17.94694      4.807819      4.807819
  17.77606      4.776290      4.776290
  17.60518      4.749230      4.749230
  17.43430      4.726528      4.726528
  17.43430      4.726528      4.726528
  17.22893      4.758869      4.758869
  17.02355      4.791698      4.791698
  16.81818      4.816781      4.816781
  16.61281      4.814947      4.814947
  16.40744      4.754007      4.754007
  16.20207      4.623942      4.623943
  15.99669      4.450472      4.450472
  15.79132      4.257319      4.257319
  15.58595      4.054849      4.054849
  15.38058      3.851288      3.851284
  15.17520      3.650963      3.650963
  14.96983      3.459948      3.459948
  14.76446      3.283244      3.283244
  14.55909      3.126792      3.126792
  14.35371      2.996481      2.996481
  14.14834      2.899198      2.899198
  13.94297      2.839245      2.839245
  13.73760      2.820433      2.820433
  13.53222      2.841389      2.841389
  13.32685      2.901256      2.901256
  13.12148      2.996481      2.996481
  12.91611      3.122250      3.122250
  12.71074      3.274200      3.274200
  12.50536      3.447222      3.447222
  12.29999      3.637353      3.637353
  12.09462      3.840772      3.840772
  11.88925      4.054849      4.054849
  11.68387      4.275985      4.275985
  11.47850      4.500926      4.500926
  11.27313      4.727184      4.727183
  11.06776      4.950463      4.950463
  10.86238      5.162298      5.162394
  10.65701      5.331669      5.331678
  10.45164      5.410565      5.410567
  10.24627      5.456284      5.456288
  10.04089      5.498366      5.498379
   9.83552      5.541543      5.541539
   9.63015      5.585502      5.585502
   9.42478      5.627894      5.627894
   9.42478      5.627894      5.627895
   9.34422      5.621203      5.621203
   9.26367      5.602475      5.602477
   9.18312      5.575012      5.575013
   9.10256      5.541984      5.541984
   9.02201      5.505585      5.505585
   8.94146      5.467285      5.467285
   8.86090      5.427880      5.427880
   8.78035      5.387891      5.387891
   8.69980      5.348201      5.348199
   8.61924      5.308732      5.308732
   8.53869      5.269865      5.269864
   8.45813      5.231803      5.231803
   8.37758      5.194524      5.194523
   8.29703      5.158653      5.158653
   8.21647      5.123946      5.123946
   8.13592      5.090610      5.090610
   8.05537      5.058456      5.058456
   7.97481      5.028134      5.028134
   7.89426      4.999435      4.999435
   7.81370      4.972331      4.972331
   7.73315      4.947038      4.947038
   7.65260      4.923500      4.923500
   7.57204      4.901734      4.901733
   7.49149      4.881724      4.881724
   7.41094      4.863492      4.863492
   7.33038      4.847116      4.847116
   7.24983      4.832224      4.832224
   7.16928      4.819108      4.819108
   7.08872      4.807360      4.807360
   7.00817      4.797247      4.797247
   6.92761      4.788543      4.788543
   6.84706      4.781151      4.781152
   6.76651      4.774983      4.774983
   6.68595      4.769946      4.769946
   6.60540      4.766032      4.766032
   6.52485      4.763023      4.763023
   6.44429      4.761003      4.761003
   6.36374      4.759907      4.759907
   6.28319      4.759498      4.759498
   6.28319      4.759498      4.759498
   6.12208      4.760902      4.760902
   5.96097      4.765204      4.765203
   5.79986      4.772513      4.772513
   5.63876      4.782767      4.782767
   5.47765      4.795934      4.795934
   5.31654      4.811996      4.811996
   5.15543      4.830920      4.830920
   4.99433      4.852653      4.852654
   4.83322      4.877115      4.877115
   4.67211      4.904005      4.904005
   4.51100      4.933627      4.933627
   4.34990      4.965605      4.965605
   4.18879      4.999382      4.999383
   4.02768      5.035126      5.035126
   3.86658      5.071755      5.071755
   3.70547      5.106976      5.106975
   3.54436      5.131424      5.131423
   3.38325      5.098614      5.098607
   3.22215      4.997721      4.997721
   3.06104      4.878033      4.878026
   2.89993      4.750750      4.750749
   2.73882      4.614454      4.614473
   2.57772      4.470382      4.470382
   2.41661      4.318211      4.318212
   2.25550      4.157817      4.157817
   2.09440      3.989433      3.989433
   1.93329      3.813930      3.813930
   1.77218      3.633293      3.633293
   1.61107      3.448241      3.448241
   1.44997      3.262147      3.262147
   1.28886      3.078165      3.078165
   1.12775      2.899984      2.899984
   0.96664      2.729651      2.729651
   0.80554      2.575944      2.575944
   0.64443      2.440311      2.440311
   0.48332      2.329716      2.329716
   0.32221      2.246732      2.246732
   0.16111      2.195343      2.195343
   0.00000      2.178149      2.178149
 
# Band-Index   15
   0.00000      5.848588      5.848789
   0.16111      5.843765      5.839698
   0.32221      5.814453      5.814284
   0.48332      5.780219      5.780233
   0.64443      5.745732      5.745837
   0.80554      5.716427      5.716303
   0.96664      5.694920      5.694853
   1.12775      5.682043      5.682027
   1.28886      5.677431      5.677431
   1.44997      5.677873      5.677866
   1.61107      5.673385      5.673328
   1.77218      5.651651      5.651658
   1.93329      5.617658      5.617675
   2.09440      5.577885      5.577888
   2.25550      5.535573      5.535574
   2.41661      5.491505      5.491503
   2.57772      5.446264      5.446263
   2.73882      5.400818      5.400829
   2.89993      5.355628      5.355623
   3.06104      5.311595      5.311594
   3.22215      5.271854      5.271854
   3.38325      5.248084      5.248083
   3.54436      5.287268      5.287269
   3.70547      5.380171      5.380169
   3.86658      5.480889      5.480891
   4.02768      5.576872      5.576871
   4.18879      5.665498      5.665545
   4.34990      5.745030      5.745026
   4.51100      5.812134      5.812161
   4.67211      5.866914      5.866901
   4.83322      5.909822      5.909835
   4.99433      5.942097      5.942078
   5.15543      5.965516      5.965564
   5.31654      5.982051      5.982124
   5.47765      5.993545      5.993542
   5.63876      6.001389      6.001381
   5.79986      6.006574      6.006451
   5.96097      6.009599      6.009644
   6.12208      6.011253      6.011250
   6.28319      6.012188      6.011996
   6.28319      6.012038      6.011994
   6.36374      6.012951      6.012963
   6.44429      6.015616      6.015629
   6.52485      6.020447      6.020355
   6.60540      6.026887      6.026874
   6.68595      6.034910      6.034907
   6.76651      6.044516      6.044511
   6.84706      6.055435      6.055432
   6.92761      6.067351      6.067335
   7.00817      6.080135      6.080119
   7.08872      6.093478      6.093467
   7.16928      6.107248      6.107262
   7.24983      6.121132      6.121100
   7.33038      6.135171      6.135092
   7.41094      6.148553      6.148430
   7.49149      6.161323      6.161319
   7.57204      6.173701      6.173645
   7.65260      6.184906      6.184925
   7.73315      6.195300      6.195145
   7.81370      6.204237      6.204219
   7.89426      6.211975      6.211975
   7.97481      6.218324      6.218323
   8.05537      6.223093      6.223079
   8.13592      6.226153      6.226134
   8.21647      6.227138      6.227128
   8.29703      6.225737      6.225734
   8.37758      6.221261      6.221234
   8.45813      6.213548      6.213536
   8.53869      6.201696      6.201657
   8.61924      6.185090      6.185106
   8.69980      6.163736      6.163738
   8.78035      6.137956      6.137961
   8.86090      6.108921      6.108922
   8.94146      6.077538      6.077482
   9.02201      6.044961      6.044962
   9.10256      6.012786      6.012785
   9.18312      5.982739      5.982742
   9.26367      5.957257      5.957269
   9.34422      5.939591      5.939590
   9.42478      5.933161      5.933162
   9.42478      5.933162      5.933161
   9.63015      5.906696      5.906697
   9.83552      5.890314      5.890278
  10.04089      5.882558      5.882612
  10.24627      5.815681      5.815886
  10.45164      5.638387      5.638447
  10.65701      5.484166      5.484174
  10.86238      5.416416      5.416501
  11.06776      5.390968      5.390968
  11.27313      5.380144      5.380144
  11.47850      5.379125      5.379125
  11.68387      5.386900      5.386901
  11.88925      5.402543      5.402544
  12.09462      5.425910      5.425916
  12.29999      5.456779      5.456775
  12.50536      5.493775      5.493777
  12.71074      5.535990      5.536000
  12.91611      5.581564      5.581564
  13.12148      5.625961      5.625964
  13.32685      5.660763      5.660741
  13.53222      5.673029      5.673022
  13.73760      5.664054      5.664053
  13.94297      5.648396      5.648391
  14.14834      5.635367      5.635364
  14.35371      5.625962      5.625967
  14.55909      5.616898      5.616899
  14.76446      5.600082      5.600079
  14.96983      5.567881      5.567897
  15.17520      5.520742      5.520744
  15.38058      5.463723      5.463714
  15.58595      5.402544      5.402544
  15.79132      5.342486      5.342485
  15.99669      5.289250      5.289250
  16.20207      5.254564      5.254562
  16.40744      5.260810      5.260810
  16.61281      5.334782      5.334783
  16.81818      5.467302      5.467301
  17.02355      5.626512      5.626513
  17.22893      5.793054      5.793039
  17.43430      5.957088      5.957113
  17.43430      5.957365      5.957079
  17.60518      5.883319      5.882925
  17.77606      5.799996      5.799996
  17.94694      5.711254      5.711266
  18.11782      5.619459      5.619449
  18.28870      5.527934      5.527909
  18.45958      5.439577      5.439581
  18.63046      5.359078      5.359075
  18.80134      5.291645      5.291638
  18.97222      5.245115      5.245116
  19.14310      5.227783      5.227784
  19.31398      5.237341      5.237341
  19.48486      5.261476      5.261474
  19.65574      5.290890      5.290889
  19.82662      5.322358      5.322340
  19.99750      5.353061      5.353059
  20.16838      5.381799      5.381828
  20.33926      5.407539      5.407534
  20.51014      5.426981      5.426834
  20.68102      5.434539      5.434488
  20.85190      5.422430      5.422445
  21.02278      5.388220      5.388176
  21.19366      5.347275      5.347328
  21.36454      5.318262      5.318232
  21.53542      5.305275      5.305270
  21.70630      5.304863      5.304825
  21.87718      5.313404      5.313403
  22.04806      5.329142      5.329130
  22.21894      5.351208      5.351222
  22.38982      5.379094      5.379088
  22.56070      5.412745      5.412734
  22.73158      5.452595      5.452570
  22.90246      5.498055      5.498077
  23.07334      5.548883      5.548856
  23.24422      5.604244      5.604260
  23.41510      5.662983      5.663011
  23.58598      5.723507      5.723742
  23.75686      5.782279      5.781645
  23.92774      5.828848      5.829714
  24.09862      5.850681      5.848189
  24.09862      5.849587      5.849712
  24.23815      5.829639      5.829392
  24.37767      5.785551      5.786581
  24.51719      5.730492      5.730494
  24.65672      5.671390      5.671844
  24.79624      5.610115      5.610109
  24.93576      5.548265      5.548264
  25.07528      5.486636      5.486662
  25.21481      5.425666      5.425658
  25.35433      5.365631      5.365633
  25.49385      5.306505      5.306726
  25.63338      5.247721      5.247709
  25.77290      5.188763      5.188767
  25.91242      5.128669      5.128687
  26.05195      5.065934      5.065987
  26.19147      4.998809      4.998793
  26.33099      4.924958      4.924961
  26.47051      4.842272      4.842274
  26.61004      4.748993      4.748992
  26.74956      4.644832      4.644832
  26.88908      4.644834      4.644833
  27.02861      4.748992      4.748992
  27.16813      4.842275      4.842271
  27.30765      4.924963      4.924958
  27.44718      4.998788      4.998789
  27.58670      5.065932      5.065956
  27.72622      5.128721      5.128737
  27.86575      5.188813      5.188874
  28.00527      5.247720      5.247696
  28.14479      5.306461      5.306463
  28.28431      5.365635      5.365626
  28.42384      5.425744      5.425671
  28.56336      5.486638      5.486856
  28.70288      5.548259      5.548345
  28.84241      5.611470      5.610051
  28.98193      5.671245      5.671239
  29.12145      5.731071      5.730492
  29.26098      5.785488      5.785296
  29.40050      5.830895      5.829493
  29.54002      5.849075      5.848068
 
# Band-Index   16
  29.54002      6.034198      6.029385
  29.40050      6.034468      6.033459
  29.26098      6.033793      6.033715
  29.12145      6.032606      6.032609
  28.98193      6.031086      6.031084
  28.84241      6.029190      6.029185
  28.70288      6.026944      6.026943
  28.56336      6.024409      6.024419
  28.42384      6.021627      6.021626
  28.28431      6.018708      6.018755
  28.14479      6.015802      6.015809
  28.00527      6.012832      6.013108
  27.86575      6.009983      6.009972
  27.72622      6.006688      6.006667
  27.58670      5.952259      5.989584
  27.44718      5.924284      5.901434
  27.30765      5.864529      5.862766
  27.16813      5.828881      5.818111
  27.02861      5.785117      5.789404
  26.88908      5.771030      5.771840
  26.74956      5.776812      5.777091
  26.61004      5.787548      5.785390
  26.47051      5.830387      5.821913
  26.33099      5.861234      5.864045
  26.19147      5.935288      5.932212
  26.05195      5.991116      5.996388
  25.91242      6.005784      6.006549
  25.77290      6.009905      6.009940
  25.63338      6.012822      6.013036
  25.49385      6.015794      6.015819
  25.35433      6.018705      6.018702
  25.21481      6.021688      6.021623
  25.07528      6.024410      6.024411
  24.93576      6.026947      6.026943
  24.79624      6.029183      6.029239
  24.65672      6.031104      6.031085
  24.51719      6.032605      6.032684
  24.37767      6.033765      6.033746
  24.23815      6.032146      6.032612
  24.09862      6.034361      6.025406
  24.09862      6.024743      6.027243
  23.92774      6.013191      6.003923
  23.75686      5.977697      5.979115
  23.58598      5.969446      5.968153
  23.41510      5.959616      5.960482
  23.24422      5.952152      5.967683
  23.07334      5.944870      5.944003
  22.90246      5.937642      5.937036
  22.73158      5.927876      5.927780
  22.56070      5.919018      5.918854
  22.38982      5.912091      5.911497
  22.21894      5.904846      5.904815
  22.04806      5.899609      5.899768
  21.87718      5.895859      5.895925
  21.70630      5.893977      5.899871
  21.53542      5.895621      5.895111
  21.36454      5.899734      5.904324
  21.19366      5.905476      5.905421
  21.02278      5.911306      5.910838
  20.85190      5.920614      5.920761
  20.68102      5.938038      5.935751
  20.51014      5.956665      5.957068
  20.33926      5.983188      5.981375
  20.16838      6.009382      6.009367
  19.99750      6.041359      6.041404
  19.82662      6.076444      6.076602
  19.65574      6.113880      6.113926
  19.48486      6.154199      6.154394
  19.31398      6.196169      6.196158
  19.14310      6.239394      6.239295
  18.97222      6.283293      6.283281
  18.80134      6.327426      6.327273
  18.63046      6.371148      6.371608
  18.45958      6.414955      6.414683
  18.28870      6.457329      6.457293
  18.11782      6.498699      6.498640
  17.94694      6.538396      6.538464
  17.77606      6.576365      6.576579
  17.60518      6.612575      6.612655
  17.43430      6.655422      6.646395
  17.43430      6.646377      6.655406
  17.22893      6.587070      6.587073
  17.02355      6.522735      6.522806
  16.81818      6.452543      6.452788
  16.61281      6.377591      6.378055
  16.40744      6.299032      6.299315
  16.20207      6.218858      6.218973
  15.99669      6.138864      6.138810
  15.79132      6.062923      6.062486
  15.58595      5.992539      5.992527
  15.38058      5.931697      5.931594
  15.17520      5.883417      5.883437
  14.96983      5.853029      5.853288
  14.76446      5.845408      5.845411
  14.55909      5.859232      5.859220
  14.35371      5.883514      5.883436
  14.14834      5.902337      5.902290
  13.94297      5.901360      5.902041
  13.73760      5.880517      5.880592
  13.53222      5.857965      5.857831
  13.32685      5.857544      5.857194
  13.12148      5.883474      5.883427
  12.91611      5.923092      5.922924
  12.71074      5.961584      5.964262
  12.50536      5.989308      5.989681
  12.29999      6.002444      6.002765
  12.09462      6.001297      6.001337
  11.88925      5.992521      5.992517
  11.68387      5.978955      5.978955
  11.47850      5.962281      5.962301
  11.27313      5.945058      5.945061
  11.06776      5.927601      5.927599
  10.86238      5.911513      5.911531
  10.65701      5.897881      5.897884
  10.45164      5.887778      5.887797
  10.24627      5.882433      5.882507
  10.04089      5.980782      5.981122
   9.83552      6.125120      6.124968
   9.63015      6.244954      6.244962
   9.42478      6.337740      6.337683
   9.42478      6.337680      6.337720
   9.34422      6.338019      6.338010
   9.26367      6.339891      6.340059
   9.18312      6.341621      6.341654
   9.10256      6.344384      6.344220
   9.02201      6.347920      6.347927
   8.94146      6.354602      6.353190
   8.86090      6.360217      6.360249
   8.78035      6.369588      6.369611
   8.69980      6.382330      6.382262
   8.61924      6.398270      6.398218
   8.53869      6.418023      6.418015
   8.45813      6.441139      6.441102
   8.37758      6.466896      6.467061
   8.29703      6.494438      6.494420
   8.21647      6.522682      6.522666
   8.13592      6.551151      6.551023
   8.05537      6.579043      6.578960
   7.97481      6.606463      6.606874
   7.89426      6.632966      6.632957
   7.81370      6.658714      6.658673
   7.73315      6.683102      6.682796
   7.65260      6.705561      6.705762
   7.57204      6.726918      6.727206
   7.49149      6.749825      6.746907
   7.41094      6.765385      6.765301
   7.33038      6.782789      6.781814
   7.24983      6.796844      6.796874
   7.16928      6.810211      6.810829
   7.08872      6.822543      6.826678
   7.00817      6.832480      6.832738
   6.92761      6.841920      6.858746
   6.84706      6.851465      6.850433
   6.76651      6.856565      6.856485
   6.68595      6.873206      6.868724
   6.60540      6.865446      6.864816
   6.52485      6.871367      6.867945
   6.44429      6.870280      6.873619
   6.36374      6.874558      6.872383
   6.28319      6.893988      6.872274
   6.28319      6.875145      6.872330
   6.12208      6.872056      6.875936
   5.96097      6.875074      6.879234
   5.79986      6.875650      6.870107
   5.63876      6.857576      6.857749
   5.47765      6.833443      6.828697
   5.31654      6.782033      6.785611
   5.15543      6.830403      6.726933
   4.99433      6.658932      6.659361
   4.83322      6.591238      6.598704
   4.67211      6.525471      6.525534
   4.51100      6.464056      6.467872
   4.34990      6.409309      6.409300
   4.18879      6.360318      6.360601
   4.02768      6.317675      6.317668
   3.86658      6.278593      6.279327
   3.70547      6.241585      6.241548
   3.54436      6.205748      6.206465
   3.38325      6.170114      6.170069
   3.22215      6.132973      6.132979
   3.06104      6.094458      6.094445
   2.89993      6.053918      6.053927
   2.73882      6.010945      6.010875
   2.57772      5.965847      5.965852
   2.41661      5.919723      5.919900
   2.25550      5.873821      5.873900
   2.09440      5.830172      5.830156
   1.93329      5.792382      5.792338
   1.77218      5.763835      5.763713
   1.61107      5.753043      5.753041
   1.44997      5.766053      5.766010
   1.28886      5.790931      5.790953
   1.12775      5.818180      5.817980
   0.96664      5.843796      5.843890
   0.80554      5.868073      5.867676
   0.64443      5.889698      5.890954
   0.48332      5.911499      5.912943
   0.32221      5.943749      5.937411
   0.16111      6.002548      6.019593
   0.00000      6.034454      6.026544
 
# Band-Index   17
   0.00000      6.034808      6.035354
   0.16111      6.047098      6.074109
   0.32221      6.119603      6.064221
   0.48332      6.061646      6.115523
   0.64443      6.056520      6.073066
   0.80554      6.256026      6.088078
   0.96664      6.128858      6.110238
   1.12775      6.100305      6.121995
   1.28886      6.124274      6.171313
   1.44997      6.212384      6.237564
   1.61107      6.189915      6.168150
   1.77218      6.235979      6.202049
   1.93329      6.395755      6.228328
   2.09440      6.294679      6.261323
   2.25550      6.303764      6.299051
   2.41661      6.336262      6.335860
   2.57772      6.374875      6.382802
   2.73882      6.414416      6.420163
   2.89993      6.458048      6.548340
   3.06104      6.500413      6.499757
   3.22215      6.560659      6.543485
   3.38325      6.586907      6.615890
   3.54436      6.633266      6.672711
   3.70547      6.688989      6.680394
   3.86658      6.713610      6.740261
   4.02768      6.759193      6.756577
   4.18879      6.809465      6.804807
   4.34990      6.833974      6.858392
   4.51100      6.949978      6.934607
   4.67211      6.904629      6.917391
   4.83322      6.941643      6.955904
   4.99433      6.996424      6.966055
   5.15543      7.077306      7.243747
   5.31654      7.032107      7.075385
   5.47765      7.049357      7.054135
   5.63876      7.077160      7.081558
   5.79986      7.150139      7.082320
   5.96097      7.098283      7.081190
   6.12208      7.091950      7.092358
   6.28319      7.129763      7.102638
   6.28319      7.167136      7.117405
   6.36374      7.155963      7.089973
   6.44429      7.169572      7.128305
   6.52485      7.153762      7.108901
   6.60540      7.095843      7.092126
   6.68595      7.117827      7.100328
   6.76651      7.104809      7.120047
   6.84706      7.170350      7.113645
   6.92761      7.104832      7.119031
   7.00817      7.107482      7.118444
   7.08872      7.106059      7.183467
   7.16928      7.152949      7.130139
   7.24983      7.116212      7.142872
   7.33038      7.153381      7.282257
   7.41094      7.249714      7.253185
   7.49149      7.112431      7.176054
   7.57204      7.121895      7.186092
   7.65260      7.112342      7.110579
   7.73315      7.134492      7.104365
   7.81370      7.116482      7.107184
   7.89426      7.163291      7.131815
   7.97481      7.102379      7.123432
   8.05537      7.111798      7.103034
   8.13592      7.096668      7.136745
   8.21647      7.084965      7.090070
   8.29703      7.270113      7.079232
   8.37758      7.086211      7.118008
   8.45813      7.095122      7.070194
   8.53869      7.068591      7.076823
   8.61924      7.072239      7.082502
   8.69980      7.109627      7.063778
   8.78035      7.056921      7.052189
   8.86090      7.049152      7.059701
   8.94146      7.168980      7.046556
   9.02201      7.052916      7.043383
   9.10256      7.042205      7.066722
   9.18312      7.041050      7.047639
   9.26367      7.085382      7.038641
   9.34422      7.037652      7.039458
   9.42478      7.036431      7.041695
   9.42478      7.068920      7.044047
   9.63015      7.060882      7.069629
   9.83552      7.122491      7.064969
  10.04089      7.047407      7.116040
  10.24627      7.023455      7.182052
  10.45164      7.165071      7.121193
  10.65701      6.930916      6.913771
  10.86238      6.875427      6.877024
  11.06776      6.808795      6.784634
  11.27313      6.705059      6.806425
  11.47850      6.626798      6.626123
  11.68387      6.603426      6.537428
  11.88925      6.470709      6.471047
  12.09462      6.721127      6.447047
  12.29999      6.579872      6.342939
  12.50536      6.253102      6.327231
  12.71074      6.219959      6.219447
  12.91611      6.318996      6.200113
  13.12148      6.180980      6.186221
  13.32685      6.327603      6.361805
  13.53222      6.159905      6.162868
  13.73760      6.142675      6.144160
  13.94297      6.136523      6.145440
  14.14834      6.164953      6.150436
  14.35371      6.226024      6.253734
  14.55909      6.221936      6.222123
  14.76446      6.277244      6.292839
  14.96983      6.400911      6.761865
  15.17520      6.373148      6.434546
  15.38058      6.833294      6.428080
  15.58595      6.516575      6.458928
  15.79132      6.512741      6.529708
  15.99669      6.550148      6.561125
  16.20207      6.615054      6.608504
  16.40744      6.869986      6.809836
  16.61281      6.704844      6.705278
  16.81818      6.755624      6.766267
  17.02355      6.807914      6.805613
  17.22893      6.866368      6.858615
  17.43430      6.914679      7.178959
  17.43430      6.944167      6.966212
  17.60518      7.366865      6.882163
  17.77606      6.861077      6.870972
  17.94694      6.841668      6.838423
  18.11782      6.801469      6.799472
  18.28870      6.788781      6.772945
  18.45958      6.744924      6.742295
  18.63046      6.714880      6.730627
  18.80134      6.682012      6.685832
  18.97222      6.649048      6.648050
  19.14310      6.618670      6.626817
  19.31398      6.585962      6.585642
  19.48486      6.554534      6.579348
  19.65574      6.524164      6.540008
  19.82662      6.490714      6.496176
  19.99750      6.503006      6.462158
  20.16838      6.430168      6.432789
  20.33926      6.408650      6.409801
  20.51014      6.352068      6.377728
  20.68102      6.309465      6.215236
  20.85190      6.210243      6.207535
  21.02278      6.146915      6.035990
  21.19366      6.106686      6.040655
  21.36454      6.146953      6.231216
  21.53542      6.067896      6.050584
  21.70630      6.143687      6.160423
  21.87718      6.164850      6.159736
  22.04806      6.151374      6.189513
  22.21894      6.164830      6.185768
  22.38982      6.118731      6.155990
  22.56070      6.121573      6.107124
  22.73158      6.085434      6.151590
  22.90246      6.106807      6.126994
  23.07334      6.066855      6.092117
  23.24422      6.060226      6.085330
  23.41510      6.146299      6.052308
  23.58598      6.043879      6.082195
  23.75686      6.047017      6.042254
  23.92774      6.074822      6.052293
  24.09862      6.035298      6.034817
  24.09862      6.034942      6.034846
  24.23815      6.034535      6.034946
  24.37767      6.034021      6.036876
  24.51719      6.062079      6.043203
  24.65672      6.087238      6.055656
  24.79624      6.031911      6.032311
  24.93576      6.042911      6.077705
  25.07528      6.090292      6.099312
  25.21481      6.023078      6.117052
  25.35433      6.020854      6.044635
  25.49385      6.029996      6.021814
  25.63338      6.025015      6.014761
  25.77290      6.042938      6.015563
  25.91242      6.007387      6.007199
  26.05195      6.005492      6.005356
  26.19147      6.006213      6.003259
  26.33099      6.001667      6.000549
  26.47051      6.000344      5.999618
  26.61004      5.999065      5.998755
  26.74956      5.998953      5.997380
  26.88908      6.004337      5.997548
  27.02861      5.998075      5.998150
  27.16813      5.999295      5.998797
  27.30765      6.000963      6.000324
  27.44718      6.003220      6.002763
  27.58670      6.004556      6.004459
  27.72622      6.007113      6.007283
  27.86575      6.038106      6.013759
  28.00527      6.038800      6.042094
  28.14479      6.054942      6.124843
  28.28431      6.066884      6.040931
  28.42384      6.023204      6.030462
  28.56336      6.056205      6.056828
  28.70288      6.105111      6.078037
  28.84241      6.031076      6.087978
  28.98193      6.034614      6.093150
  29.12145      6.046515      6.058617
  29.26098      6.047679      6.044173
  29.40050      6.034912      6.034733
  29.54002      6.034791      6.034759
