#K-Path(1/A) Energy-Level(eV)
# NKPTS & NBANDS: 300   8
# Band-Index    1
   0.00000    -19.668503
   0.01720    -19.667652
   0.03440    -19.665149
   0.05160    -19.661168
   0.06880    -19.655591
   0.08600    -19.648371
   0.10320    -19.639547
   0.12040    -19.629028
   0.13760    -19.616961
   0.15480    -19.603282
   0.17200    -19.587913
   0.18920    -19.571014
   0.20640    -19.552419
   0.22360    -19.532273
   0.24080    -19.510443
   0.25800    -19.487091
   0.27520    -19.462036
   0.29240    -19.435464
   0.30960    -19.407206
   0.32680    -19.377431
   0.34400    -19.345960
   0.36120    -19.312870
   0.37840    -19.278312
   0.39560    -19.242042
   0.41280    -19.204277
   0.43000    -19.164819
   0.44720    -19.123699
   0.46440    -19.081196
   0.48160    -19.036996
   0.49880    -18.991155
   0.51600    -18.943881
   0.53320    -18.894879
   0.55040    -18.844296
   0.56760    -18.792316
   0.58480    -18.738592
   0.60200    -18.683318
   0.61920    -18.626639
   0.63640    -18.568215
   0.65360    -18.508281
   0.67080    -18.446908
   0.68800    -18.383826
   0.70520    -18.319218
   0.72240    -18.253064
   0.73960    -18.185618
   0.75680    -18.116470
   0.77400    -18.045779
   0.79120    -17.973744
   0.80840    -17.900000
   0.82560    -17.824739
   0.84280    -17.747990
   0.86000    -17.670082
   0.87720    -17.590359
   0.89440    -17.509194
   0.91160    -17.426523
   0.92880    -17.342645
   0.94600    -17.257100
   0.96320    -17.170147
   0.98040    -17.081754
   0.99760    -16.992200
   1.01480    -16.901006
   1.03200    -16.808374
   1.04920    -16.714387
   1.06640    -16.619000
   1.08360    -16.522574
   1.10080    -16.424465
   1.11800    -16.325216
   1.13520    -16.224651
   1.15240    -16.123134
   1.16960    -16.020027
   1.18680    -15.915716
   1.20400    -15.810196
   1.22120    -15.703600
   1.23840    -15.596173
   1.25560    -15.487301
   1.27280    -15.377376
   1.29000    -15.266422
   1.30720    -15.154604
   1.32440    -15.042098
   1.34160    -14.928416
   1.35880    -14.815338
   1.37601    -14.700667
   1.39321    -14.585664
   1.41041    -14.470286
   1.42761    -14.354035
   1.44481    -14.237554
   1.46201    -14.120992
   1.47921    -14.004605
   1.49641    -13.888506
   1.51361    -13.772760
   1.53081    -13.657756
   1.54801    -13.543613
   1.56521    -13.431450
   1.58241    -13.321314
   1.59961    -13.213894
   1.61681    -13.109695
   1.63401    -13.009355
   1.65121    -12.914899
   1.66841    -12.826960
   1.68561    -12.751166
   1.70281    -12.728039
   1.70281    -12.728039
   1.72556    -12.739708
   1.74831    -12.832480
   1.77107    -12.928892
   1.79382    -13.026658
   1.81657    -13.126349
   1.83933    -13.226810
   1.86208    -13.328618
   1.88483    -13.430249
   1.90758    -13.532390
   1.93034    -13.634774
   1.95309    -13.736265
   1.97584    -13.837488
   1.99860    -13.938241
   2.02135    -14.037492
   2.04410    -14.135834
   2.06686    -14.232958
   2.08961    -14.328537
   2.11236    -14.422536
   2.13512    -14.514728
   2.15787    -14.605304
   2.18062    -14.693541
   2.20338    -14.781066
   2.22613    -14.866367
   2.24888    -14.949954
   2.27164    -15.031317
   2.29439    -15.110412
   2.31714    -15.187401
   2.33989    -15.262225
   2.36265    -15.334317
   2.38540    -15.404587
   2.40815    -15.472208
   2.43091    -15.537780
   2.45366    -15.600802
   2.47641    -15.661274
   2.49917    -15.719397
   2.52192    -15.774851
   2.54467    -15.828047
   2.56743    -15.878534
   2.59018    -15.926631
   2.61293    -15.971968
   2.63569    -16.014857
   2.65844    -16.055065
   2.68119    -16.092902
   2.70395    -16.127967
   2.72670    -16.160493
   2.74945    -16.190320
   2.77220    -16.217552
   2.79496    -16.242082
   2.81771    -16.263970
   2.84046    -16.283123
   2.86322    -16.299630
   2.88597    -16.313641
   2.90872    -16.324793
   2.93148    -16.333221
   2.95423    -16.338989
   2.97698    -16.342230
   2.99974    -16.342637
   3.02249    -16.340104
   3.04524    -16.335244
   3.06800    -16.327539
   3.09075    -16.317135
   3.11350    -16.304008
   3.13626    -16.288355
   3.15901    -16.269795
   3.18176    -16.248680
   3.20452    -16.224701
   3.22727    -16.198343
   3.25002    -16.169174
   3.27277    -16.137406
   3.29553    -16.102996
   3.31828    -16.066132
   3.34103    -16.026416
   3.36379    -15.983936
   3.38654    -15.939086
   3.40929    -15.891604
   3.43205    -15.841787
   3.45480    -15.789201
   3.47755    -15.734226
   3.50031    -15.676551
   3.52306    -15.616914
   3.54581    -15.554699
   3.56857    -15.490267
   3.59132    -15.423707
   3.61407    -15.355087
   3.63683    -15.284491
   3.65958    -15.212076
   3.68233    -15.137954
   3.70508    -15.062546
   3.72784    -14.986040
   3.75059    -14.909206
   3.77334    -14.831892
   3.79610    -14.755544
   3.81885    -14.680906
   3.84160    -14.609749
   3.86436    -14.544018
   3.88711    -14.486729
   3.90986    -14.441205
   3.93262    -14.411605
   3.95537    -14.401391
   3.95537    -14.401391
   3.97026    -14.412362
   3.98516    -14.444140
   4.00006    -14.493273
   4.01495    -14.555402
   4.02985    -14.627725
   4.04474    -14.707013
   4.05964    -14.791190
   4.07453    -14.878681
   4.08943    -14.968479
   4.10432    -15.059507
   4.11922    -15.151814
   4.13411    -15.244555
   4.14901    -15.337353
   4.16391    -15.430327
   4.17880    -15.522896
   4.19370    -15.615316
   4.20859    -15.707215
   4.22349    -15.798558
   4.23838    -15.889289
   4.25328    -15.979169
   4.26817    -16.068248
   4.28307    -16.156632
   4.29796    -16.244249
   4.31286    -16.331048
   4.32775    -16.416715
   4.34265    -16.501693
   4.35755    -16.585662
   4.37244    -16.668674
   4.38734    -16.750508
   4.40223    -16.831279
   4.41713    -16.911246
   4.43202    -16.990078
   4.44692    -17.068001
   4.46181    -17.144681
   4.47671    -17.220484
   4.49160    -17.295043
   4.50650    -17.368698
   4.52139    -17.441247
   4.53629    -17.512575
   4.55119    -17.582905
   4.56608    -17.652154
   4.58098    -17.720304
   4.59587    -17.787078
   4.61077    -17.852973
   4.62566    -17.917773
   4.64056    -17.981438
   4.65545    -18.043804
   4.67035    -18.105203
   4.68524    -18.165215
   4.70014    -18.224331
   4.71503    -18.282174
   4.72993    -18.338990
   4.74483    -18.394626
   4.75972    -18.448980
   4.77462    -18.502195
   4.78951    -18.554352
   4.80441    -18.605353
   4.81930    -18.655063
   4.83420    -18.703725
   4.84909    -18.751076
   4.86399    -18.797296
   4.87888    -18.842431
   4.89378    -18.886383
   4.90867    -18.929149
   4.92357    -18.970549
   4.93847    -19.010879
   4.95336    -19.050068
   4.96826    -19.088000
   4.98315    -19.124829
   4.99805    -19.160373
   5.01294    -19.194744
   5.02784    -19.227988
   5.04273    -19.259922
   5.05763    -19.290687
   5.07252    -19.320336
   5.08742    -19.348726
   5.10232    -19.375957
   5.11721    -19.401909
   5.13211    -19.426673
   5.14700    -19.450286
   5.16190    -19.472584
   5.17679    -19.493774
   5.19169    -19.513736
   5.20658    -19.532519
   5.22148    -19.549996
   5.23637    -19.566371
   5.25127    -19.581483
   5.26616    -19.595376
   5.28106    -19.608071
   5.29596    -19.619529
   5.31085    -19.629808
   5.32575    -19.638870
   5.34064    -19.646701
   5.35554    -19.653331
   5.37043    -19.658694
   5.38533    -19.662959
   5.40022    -19.665978
   5.41512    -19.667827
   5.43001    -19.668503
 
 
# Band-Index    2
   5.43001     -7.714374
   5.41512     -7.713548
   5.40022     -7.711533
   5.38533     -7.709071
   5.37043     -7.703998
   5.35554     -7.697592
   5.34064     -7.689622
   5.32575     -7.680106
   5.31085     -7.669227
   5.29596     -7.656792
   5.28106     -7.643033
   5.26616     -7.627909
   5.25127     -7.610270
   5.23637     -7.591931
   5.22148     -7.572352
   5.20658     -7.551320
   5.19169     -7.528968
   5.17679     -7.504893
   5.16190     -7.480568
   5.14700     -7.453818
   5.13211     -7.425733
   5.11721     -7.396280
   5.10232     -7.365391
   5.08742     -7.332969
   5.07252     -7.298542
   5.05763     -7.261974
   5.04273     -7.225335
   5.02784     -7.187938
   5.01294     -7.148346
   4.99805     -7.107504
   4.98315     -7.065276
   4.96826     -7.021511
   4.95336     -6.976602
   4.93847     -6.930203
   4.92357     -6.883191
   4.90867     -6.834063
   4.89378     -6.783534
   4.87888     -6.730307
   4.86399     -6.676940
   4.84909     -6.622467
   4.83420     -6.566828
   4.81930     -6.509839
   4.80441     -6.465088
   4.78951     -6.595602
   4.77462     -6.726670
   4.75972     -6.859404
   4.74483     -6.992807
   4.72993     -7.125707
   4.71503     -7.259958
   4.70014     -7.394687
   4.68524     -7.527345
   4.67035     -7.662336
   4.65545     -7.797125
   4.64056     -7.934404
   4.62566     -8.068846
   4.61077     -8.204133
   4.59587     -8.340364
   4.58098     -8.474156
   4.56608     -8.609343
   4.55119     -8.744612
   4.53629     -8.880125
   4.52139     -9.015347
   4.50650     -9.150850
   4.49160     -9.285236
   4.47671     -9.418942
   4.46181     -9.552949
   4.44692     -9.686811
   4.43202     -9.818895
   4.41713     -9.952628
   4.40223    -10.084399
   4.38734    -10.216062
   4.37244    -10.347374
   4.35755    -10.476565
   4.34265    -10.606838
   4.32775    -10.734942
   4.31286    -10.864279
   4.29796    -10.991875
   4.28307    -11.118774
   4.26817    -11.245878
   4.25328    -11.370578
   4.23838    -11.495814
   4.22349    -11.619042
   4.20859    -11.740892
   4.19370    -11.863252
   4.17880    -11.982939
   4.16391    -12.100696
   4.14901    -12.218359
   4.13411    -12.333371
   4.11922    -12.446231
   4.10432    -12.556843
   4.08943    -12.664111
   4.07453    -12.768007
   4.05964    -12.868246
   4.04474    -12.964240
   4.02985    -13.053767
   4.01495    -13.134464
   4.00006    -13.203807
   3.98516    -13.257600
   3.97026    -13.291780
   3.95537    -13.303461
   3.95537    -13.303461
   3.93262    -13.290910
   3.90986    -13.254865
   3.88711    -13.197762
   3.86436    -13.123883
   3.84160    -13.038865
   3.81885    -12.943461
   3.79610    -12.839732
   3.77334    -12.730593
   3.75059    -12.615357
   3.72784    -12.495868
   3.70508    -12.372382
   3.68233    -12.246112
   3.65958    -12.117348
   3.63683    -11.986076
   3.61407    -11.852186
   3.59132    -11.717286
   3.56857    -11.580476
   3.54581    -11.442698
   3.52306    -11.304915
   3.50031    -11.166370
   3.47755    -11.027512
   3.45480    -10.889679
   3.43205    -10.752304
   3.40929    -10.617114
   3.38654    -10.484310
   3.36379    -10.355808
   3.34103    -10.232109
   3.31828    -10.116816
   3.29553    -10.010796
   3.27277     -9.917964
   3.25002     -9.840674
   3.22727     -9.783141
   3.20452     -9.747011
   3.18176     -9.733340
   3.15901     -9.739824
   3.13626     -9.766098
   3.11350     -9.805953
   3.09075     -9.857379
   3.06800     -9.917921
   3.04524     -9.985585
   3.02249    -10.057734
   2.99974    -10.133123
   2.97698    -10.210541
   2.95423    -10.289046
   2.93148    -10.368430
   2.90872    -10.448881
   2.88597    -10.528426
   2.86322    -10.608378
   2.84046    -10.686960
   2.81771    -10.765538
   2.79496    -10.842153
   2.77220    -10.918523
   2.74945    -10.992547
   2.72670    -11.065879
   2.70395    -11.137057
   2.68119    -11.206680
   2.65844    -11.275135
   2.63569    -11.341599
   2.61293    -11.405592
   2.59018    -11.467852
   2.56743    -11.528708
   2.54467    -11.587729
   2.52192    -11.644048
   2.49917    -11.697760
   2.47641    -11.749677
   2.45366    -11.799834
   2.43091    -11.846610
   2.40815    -11.891863
   2.38540    -11.935540
   2.36265    -11.977367
   2.33989    -12.016290
   2.31714    -12.052874
   2.29439    -12.087390
   2.27164    -12.119302
   2.24888    -12.149421
   2.22613    -12.176666
   2.20338    -12.201908
   2.18062    -12.224762
   2.15787    -12.245801
   2.13512    -12.264407
   2.11236    -12.281741
   2.08961    -12.295842
   2.06686    -12.308558
   2.04410    -12.319612
   2.02135    -12.329372
   1.99860    -12.337742
   1.97584    -12.345721
   1.95309    -12.353145
   1.93034    -12.360867
   1.90758    -12.369916
   1.88483    -12.380426
   1.86208    -12.394538
   1.83933    -12.413570
   1.81657    -12.439886
   1.79382    -12.474611
   1.77107    -12.519108
   1.74831    -12.574748
   1.72556    -12.641774
   1.70281    -12.641821
   1.70281    -12.641821
   1.68561    -12.623900
   1.66841    -12.560862
   1.65121    -12.491123
   1.63401    -12.418809
   1.61681    -12.345327
   1.59961    -12.269826
   1.58241    -12.192982
   1.56521    -12.114627
   1.54801    -12.034890
   1.53081    -11.953752
   1.51361    -11.872478
   1.49641    -11.789697
   1.47921    -11.704802
   1.46201    -11.618748
   1.44481    -11.531406
   1.42761    -11.442984
   1.41041    -11.353995
   1.39321    -11.262490
   1.37601    -11.169749
   1.35880    -11.076085
   1.34160    -10.980815
   1.32440    -10.884711
   1.30720    -10.788317
   1.29000    -10.689144
   1.27280    -10.589347
   1.25560    -10.487951
   1.23840    -10.385343
   1.22120    -10.281803
   1.20400    -10.177729
   1.18680    -10.072051
   1.16960     -9.964729
   1.15240     -9.856772
   1.13520     -9.747063
   1.11800     -9.636333
   1.10080     -9.525073
   1.08360     -9.416035
   1.06640     -9.304157
   1.04920     -9.191852
   1.03200     -9.076947
   1.01480     -8.961555
   0.99760     -8.845702
   0.98040     -8.728407
   0.96320     -8.611879
   0.94600     -8.493226
   0.92880     -8.372477
   0.91160     -8.252057
   0.89440     -8.131774
   0.87720     -8.008596
   0.86000     -7.886371
   0.84280     -7.764247
   0.82560     -7.640174
   0.80840     -7.516344
   0.79120     -7.390559
   0.77400     -7.265651
   0.75680     -7.139664
   0.73960     -7.013401
   0.72240     -6.886281
   0.70520     -6.761200
   0.68800     -6.634583
   0.67080     -6.507201
   0.65360     -6.381517
   0.63640     -6.405526
   0.61920     -6.474458
   0.60200     -6.541277
   0.58480     -6.606587
   0.56760     -6.671958
   0.55040     -6.733276
   0.53320     -6.793137
   0.51600     -6.851177
   0.49880     -6.907221
   0.48160     -6.961637
   0.46440     -7.013512
   0.44720     -7.064065
   0.43000     -7.112960
   0.41280     -7.159299
   0.39560     -7.204321
   0.37840     -7.247618
   0.36120     -7.288642
   0.34400     -7.328078
   0.32680     -7.365503
   0.30960     -7.401771
   0.29240     -7.435707
   0.27520     -7.468708
   0.25800     -7.498721
   0.24080     -7.526662
   0.22360     -7.552753
   0.20640     -7.576742
   0.18920     -7.598502
   0.17200     -7.618578
   0.15480     -7.636977
   0.13760     -7.654210
   0.12040     -7.668710
   0.10320     -7.681404
   0.08600     -7.691932
   0.06880     -7.700720
   0.05160     -7.706187
   0.03440     -7.711016
   0.01720     -7.713414
   0.00000     -7.714374
 
 
# Band-Index    3
   0.00000     -3.064447
   0.01720     -3.064670
   0.03440     -3.072904
   0.05160     -3.088413
   0.06880     -3.112801
   0.08600     -3.138992
   0.10320     -3.175783
   0.12040     -3.215996
   0.13760     -3.264107
   0.15480     -3.316986
   0.17200     -3.376928
   0.18920     -3.443310
   0.20640     -3.511687
   0.22360     -3.589040
   0.24080     -3.669452
   0.25800     -3.754427
   0.27520     -3.840850
   0.29240     -3.933894
   0.30960     -4.029967
   0.32680     -4.127579
   0.34400     -4.231866
   0.36120     -4.337728
   0.37840     -4.446906
   0.39560     -4.555912
   0.41280     -4.669048
   0.43000     -4.784201
   0.44720     -4.898817
   0.46440     -5.017560
   0.48160     -5.138360
   0.49880     -5.257744
   0.51600     -5.380591
   0.53320     -5.503193
   0.55040     -5.626735
   0.56760     -5.752055
   0.58480     -5.875615
   0.60200     -6.001804
   0.61920     -6.128837
   0.63640     -6.253046
   0.65360     -6.335186
   0.67080     -6.263084
   0.68800     -6.189137
   0.70520     -6.113404
   0.72240     -6.035891
   0.73960     -5.957511
   0.75680     -5.877027
   0.77400     -5.956415
   0.79120     -6.062536
   0.80840     -6.168870
   0.82560     -6.275584
   0.84280     -6.382287
   0.86000     -6.487810
   0.87720     -6.595341
   0.89440     -6.704298
   0.91160     -6.811705
   0.92880     -6.919602
   0.94600     -7.027229
   0.96320     -7.134807
   0.98040     -7.240030
   0.99760     -7.347433
   1.01480     -7.454003
   1.03200     -7.560462
   1.04920     -7.667644
   1.06640     -7.772865
   1.08360     -7.878198
   1.10080     -7.980443
   1.11800     -8.084241
   1.13520     -8.188657
   1.15240     -8.291446
   1.16960     -8.393020
   1.18680     -8.494125
   1.20400     -8.594011
   1.22120     -8.692361
   1.23840     -8.790110
   1.25560     -8.887282
   1.27280     -8.983352
   1.29000     -9.078107
   1.30720     -9.172067
   1.32440     -9.262607
   1.34160     -9.353358
   1.35880     -9.444229
   1.37601     -9.532588
   1.39321     -9.619713
   1.41041     -9.705829
   1.42761     -9.787409
   1.44481     -9.868717
   1.46201     -9.947936
   1.47921    -10.024973
   1.49641    -10.099475
   1.51361    -10.169941
   1.53081    -10.238292
   1.54801    -10.303509
   1.56521    -10.365544
   1.58241    -10.423446
   1.59961    -10.476190
   1.61681    -10.524144
   1.63401    -10.565183
   1.65121    -10.600715
   1.66841    -10.627020
   1.68561    -10.644110
   1.70281    -10.651907
   1.70281    -10.651907
   1.72556    -10.637251
   1.74831    -10.601449
   1.77107    -10.547000
   1.79382    -10.473227
   1.81657    -10.383232
   1.83933    -10.277376
   1.86208    -10.160964
   1.88483    -10.032065
   1.90758     -9.896007
   1.93034     -9.751986
   1.95309     -9.603228
   1.97584     -9.449462
   1.99860     -9.292608
   2.02135     -9.134318
   2.04410     -8.973154
   2.06686     -8.812271
   2.08961     -8.650166
   2.11236     -8.488450
   2.13512     -8.328172
   2.15787     -8.168826
   2.18062     -8.011301
   2.20338     -7.858720
   2.22613     -7.707354
   2.24888     -7.561745
   2.27164     -7.417866
   2.29439     -7.280125
   2.31714     -7.148630
   2.33989     -7.022921
   2.36265     -6.901745
   2.38540     -6.791883
   2.40815     -6.687131
   2.43091     -6.591902
   2.45366     -6.505815
   2.47641     -6.428067
   2.49917     -6.361226
   2.52192     -6.302750
   2.54467     -6.258428
   2.56743     -6.222301
   2.59018     -6.198943
   2.61293     -6.186768
   2.63569     -6.183875
   2.65844     -6.193927
   2.68119     -6.213100
   2.70395     -6.245197
   2.72670     -6.287120
   2.74945     -6.337608
   2.77220     -6.396888
   2.79496     -6.467687
   2.81771     -6.545705
   2.84046     -6.628412
   2.86322     -6.721871
   2.88597     -6.820038
   2.90872     -6.922967
   2.93148     -7.030133
   2.95423     -7.141255
   2.97698     -7.255800
   2.99974     -7.372032
   3.02249     -7.487023
   3.04524     -7.602975
   3.06800     -7.717051
   3.09075     -7.823809
   3.11350     -7.924768
   3.13626     -8.014150
   3.15901     -8.090289
   3.18176     -8.149800
   3.20452     -8.188605
   3.22727     -8.205819
   3.25002     -8.201560
   3.27277     -8.179079
   3.29553     -8.140049
   3.31828     -8.088585
   3.34103     -8.026730
   3.36379     -7.958928
   3.38654     -7.884655
   3.40929     -7.805443
   3.43205     -7.724204
   3.45480     -7.642744
   3.47755     -7.559883
   3.50031     -7.475893
   3.52306     -7.393997
   3.54581     -7.310774
   3.56857     -7.230877
   3.59132     -7.153799
   3.61407     -7.077000
   3.63683     -7.003692
   3.65958     -6.933032
   3.68233     -6.867540
   3.70508     -6.804802
   3.72784     -6.746461
   3.75059     -6.692362
   3.77334     -6.642924
   3.79610     -6.598708
   3.81885     -6.559746
   3.84160     -6.526360
   3.86436     -6.498118
   3.88711     -6.476531
   3.90986     -6.461113
   3.93262     -6.452387
   3.95537     -6.451719
   3.95537     -6.451719
   3.97026     -6.449949
   3.98516     -6.448124
   4.00006     -6.445075
   4.01495     -6.440064
   4.02985     -6.434580
   4.04474     -6.427877
   4.05964     -6.420741
   4.07453     -6.412134
   4.08943     -6.402585
   4.10432     -6.391776
   4.11922     -6.379494
   4.13411     -6.365936
   4.14901     -6.350580
   4.16391     -6.334345
   4.17880     -6.314481
   4.19370     -6.296321
   4.20859     -6.276796
   4.22349     -6.257157
   4.23838     -6.235531
   4.25328     -6.212338
   4.26817     -6.187734
   4.28307     -6.160943
   4.29796     -6.134801
   4.31286     -6.108243
   4.32775     -6.079734
   4.34265     -6.050668
   4.35755     -6.019878
   4.37244     -5.988502
   4.38734     -5.954917
   4.40223     -5.921816
   4.41713     -5.887172
   4.43202     -5.849751
   4.44692     -5.813283
   4.46181     -5.775148
   4.47671     -5.736216
   4.49160     -5.696020
   4.50650     -5.656347
   4.52139     -5.614450
   4.53629     -5.571833
   4.55119     -5.528648
   4.56608     -5.482856
   4.58098     -5.437658
   4.59587     -5.501739
   4.61077     -5.577106
   4.62566     -5.651506
   4.64056     -5.725088
   4.65545     -5.796871
   4.67035     -5.867854
   4.68524     -5.936144
   4.70014     -6.004843
   4.71503     -6.072340
   4.72993     -6.139919
   4.74483     -6.204632
   4.75972     -6.268088
   4.77462     -6.330362
   4.78951     -6.391429
   4.80441     -6.451367
   4.81930     -6.336206
   4.83420     -6.207819
   4.84909     -6.077555
   4.86399     -5.949790
   4.87888     -5.826490
   4.89378     -5.701497
   4.90867     -5.577740
   4.92357     -5.455986
   4.93847     -5.336734
   4.95336     -5.217425
   4.96826     -5.099555
   4.98315     -4.985632
   4.99805     -4.872088
   5.01294     -4.760381
   5.02784     -4.652962
   5.04273     -4.545603
   5.05763     -4.441170
   5.07252     -4.339337
   5.08742     -4.240614
   5.10232     -4.147985
   5.11721     -4.054353
   5.13211     -3.961529
   5.14700     -3.873889
   5.16190     -3.792411
   5.17679     -3.715285
   5.19169     -3.639447
   5.20658     -3.564604
   5.22148     -3.498659
   5.23637     -3.434847
   5.25127     -3.376276
   5.26616     -3.321284
   5.28106     -3.270767
   5.29596     -3.225930
   5.31085     -3.187550
   5.32575     -3.154355
   5.34064     -3.128667
   5.35554     -3.106934
   5.37043     -3.088707
   5.38533     -3.076351
   5.40022     -3.068395
   5.41512     -3.063876
   5.43001     -3.064447
 
 
# Band-Index    4
   5.43001     -2.996013
   5.41512     -2.995107
   5.40022     -3.002303
   5.38533     -3.012536
   5.37043     -3.027453
   5.35554     -3.047420
   5.34064     -3.068350
   5.32575     -3.089780
   5.31085     -3.114023
   5.29596     -3.139385
   5.28106     -3.166448
   5.26616     -3.194966
   5.25127     -3.225334
   5.23637     -3.257745
   5.22148     -3.291550
   5.20658     -3.327131
   5.19169     -3.364614
   5.17679     -3.402376
   5.16190     -3.441814
   5.14700     -3.483973
   5.13211     -3.529220
   5.11721     -3.574210
   5.10232     -3.620638
   5.08742     -3.667458
   5.07252     -3.713730
   5.05763     -3.763074
   5.04273     -3.813706
   5.02784     -3.870143
   5.01294     -3.921012
   4.99805     -3.973457
   4.98315     -4.026901
   4.96826     -4.080180
   4.95336     -4.134053
   4.93847     -4.187530
   4.92357     -4.242422
   4.90867     -4.297616
   4.89378     -4.352434
   4.87888     -4.407302
   4.86399     -4.461224
   4.84909     -4.516047
   4.83420     -4.571389
   4.81930     -4.625733
   4.80441     -4.679659
   4.78951     -4.733751
   4.77462     -4.787328
   4.75972     -4.841299
   4.74483     -4.893714
   4.72993     -4.946641
   4.71503     -4.998683
   4.70014     -5.049060
   4.68524     -5.099208
   4.67035     -5.151843
   4.65545     -5.201405
   4.64056     -5.250558
   4.62566     -5.298347
   4.61077     -5.345821
   4.59587     -5.392719
   4.58098     -5.425275
   4.56608     -5.346915
   4.55119     -5.266851
   4.53629     -5.187416
   4.52139     -5.106972
   4.50650     -5.025490
   4.49160     -4.942839
   4.47671     -4.859723
   4.46181     -4.775669
   4.44692     -4.690885
   4.43202     -4.605316
   4.41713     -4.519635
   4.40223     -4.432861
   4.38734     -4.345633
   4.37244     -4.256351
   4.35755     -4.168116
   4.34265     -4.079832
   4.32775     -3.991331
   4.31286     -3.903396
   4.29796     -3.815714
   4.28307     -3.727503
   4.26817     -3.639777
   4.25328     -3.552479
   4.23838     -3.464414
   4.22349     -3.378751
   4.20859     -3.294141
   4.19370     -3.209962
   4.17880     -3.128608
   4.16391     -3.048289
   4.14901     -2.971326
   4.13411     -2.897352
   4.11922     -2.826044
   4.10432     -2.757805
   4.08943     -2.695861
   4.07453     -2.637277
   4.05964     -2.584513
   4.04474     -2.536636
   4.02985     -2.495179
   4.01495     -2.460443
   4.00006     -2.433439
   3.98516     -2.413437
   3.97026     -2.400997
   3.95537     -2.395571
   3.95537     -2.395571
   3.93262     -2.399188
   3.90986     -2.409317
   3.88711     -2.424349
   3.86436     -2.445473
   3.84160     -2.470641
   3.81885     -2.500877
   3.79610     -2.536984
   3.77334     -2.577022
   3.75059     -2.618952
   3.72784     -2.664232
   3.70508     -2.711739
   3.68233     -2.762401
   3.65958     -2.813775
   3.63683     -2.867179
   3.61407     -2.920260
   3.59132     -2.973164
   3.56857     -3.026579
   3.54581     -3.079993
   3.52306     -3.133043
   3.50031     -3.186297
   3.47755     -3.236977
   3.45480     -3.287393
   3.43205     -3.337049
   3.40929     -3.384158
   3.38654     -3.429888
   3.36379     -3.472924
   3.34103     -3.515775
   3.31828     -3.555660
   3.29553     -3.593409
   3.27277     -3.629180
   3.25002     -3.663756
   3.22727     -3.693866
   3.20452     -3.722738
   3.18176     -3.749151
   3.15901     -3.773361
   3.13626     -3.794973
   3.11350     -3.813690
   3.09075     -3.829938
   3.06800     -3.843781
   3.04524     -3.853537
   3.02249     -3.861326
   2.99974     -3.868087
   2.97698     -3.870934
   2.95423     -3.870011
   2.93148     -3.867585
   2.90872     -3.862274
   2.88597     -3.853966
   2.86322     -3.842914
   2.84046     -3.828676
   2.81771     -3.812310
   2.79496     -3.793040
   2.77220     -3.770357
   2.74945     -3.746043
   2.72670     -3.719761
   2.70395     -3.689360
   2.68119     -3.656569
   2.65844     -3.620696
   2.63569     -3.582947
   2.61293     -3.542671
   2.59018     -3.497215
   2.56743     -3.450349
   2.54467     -3.401311
   2.52192     -3.349072
   2.49917     -3.294733
   2.47641     -3.237582
   2.45366     -3.178966
   2.43091     -3.117018
   2.40815     -3.050522
   2.38540     -2.984340
   2.36265     -2.914321
   2.33989     -2.842834
   2.31714     -2.768290
   2.29439     -2.691612
   2.27164     -2.611772
   2.24888     -2.529520
   2.22613     -2.444317
   2.20338     -2.358719
   2.18062     -2.270226
   2.15787     -2.181395
   2.13512     -2.089090
   2.11236     -1.995902
   2.08961     -1.898630
   2.06686     -1.800035
   2.04410     -1.699823
   2.02135     -1.597786
   1.99860     -1.493161
   1.97584     -1.386520
   1.95309     -1.278379
   1.93034     -1.170177
   1.90758     -1.059041
   1.88483     -0.946091
   1.86208     -0.832554
   1.83933     -0.716616
   1.81657     -0.598857
   1.79382     -0.478945
   1.77107     -0.358748
   1.74831     -0.235834
   1.72556     -0.112648
   1.70281     -0.012124
   1.70281     -0.012124
   1.68561     -0.089787
   1.66841     -0.188463
   1.65121     -0.288890
   1.63401     -0.391529
   1.61681     -0.496650
   1.59961     -0.603187
   1.58241     -0.710423
   1.56521     -0.820203
   1.54801     -0.931384
   1.53081     -1.046561
   1.51361     -1.160488
   1.49641     -1.275172
   1.47921     -1.389214
   1.46201     -1.505168
   1.44481     -1.622058
   1.42761     -1.740279
   1.41041     -1.859162
   1.39321     -1.976418
   1.37601     -2.094702
   1.35880     -2.212089
   1.34160     -2.330453
   1.32440     -2.450579
   1.30720     -2.569549
   1.29000     -2.687050
   1.27280     -2.804492
   1.25560     -2.921444
   1.23840     -3.037867
   1.22120     -3.153692
   1.20400     -3.268736
   1.18680     -3.383227
   1.16960     -3.498258
   1.15240     -3.611123
   1.13520     -3.722683
   1.11800     -3.833530
   1.10080     -3.942711
   1.08360     -4.053673
   1.06640     -4.161170
   1.04920     -4.269143
   1.03200     -4.375980
   1.01480     -4.480260
   0.99760     -4.581806
   0.98040     -4.683265
   0.96320     -4.783831
   0.94600     -4.882768
   0.92880     -4.980413
   0.91160     -5.077196
   0.89440     -5.172068
   0.87720     -5.265802
   0.86000     -5.357634
   0.84280     -5.448691
   0.82560     -5.537502
   0.80840     -5.624715
   0.79120     -5.710291
   0.77400     -5.794833
   0.75680     -5.851310
   0.73960     -5.744557
   0.72240     -5.639054
   0.70520     -5.537950
   0.68800     -5.436008
   0.67080     -5.334588
   0.65360     -5.233872
   0.63640     -5.134086
   0.61920     -5.036466
   0.60200     -4.939219
   0.58480     -4.842539
   0.56760     -4.748565
   0.55040     -4.658133
   0.53320     -4.567244
   0.51600     -4.478046
   0.49880     -4.390322
   0.48160     -4.304809
   0.46440     -4.221562
   0.44720     -4.136464
   0.43000     -4.057274
   0.41280     -3.980137
   0.39560     -3.906510
   0.37840     -3.835980
   0.36120     -3.765773
   0.34400     -3.698630
   0.32680     -3.632408
   0.30960     -3.570521
   0.29240     -3.512661
   0.27520     -3.456526
   0.25800     -3.403564
   0.24080     -3.353349
   0.22360     -3.306359
   0.20640     -3.264345
   0.18920     -3.221161
   0.17200     -3.183294
   0.15480     -3.149035
   0.13760     -3.118160
   0.12040     -3.090252
   0.10320     -3.066978
   0.08600     -3.044013
   0.06880     -3.026538
   0.05160     -3.011469
   0.03440     -3.000782
   0.01720     -2.996425
   0.00000     -2.996013
 
 
# Band-Index    5
   0.00000      3.183434
   0.01720      3.184549
   0.03440      3.187880
   0.05160      3.193350
   0.06880      3.201015
   0.08600      3.210877
   0.10320      3.222934
   0.12040      3.237212
   0.13760      3.253663
   0.15480      3.272309
   0.17200      3.293181
   0.18920      3.316221
   0.20640      3.341486
   0.22360      3.368935
   0.24080      3.398602
   0.25800      3.430431
   0.27520      3.464495
   0.29240      3.500721
   0.30960      3.539177
   0.32680      3.579799
   0.34400      3.622655
   0.36120      3.667712
   0.37840      3.714920
   0.39560      3.764368
   0.41280      3.815971
   0.43000      3.869815
   0.44720      3.925875
   0.46440      3.984055
   0.48160      4.044487
   0.49880      4.107115
   0.51600      4.171882
   0.53320      4.238895
   0.55040      4.308100
   0.56760      4.379445
   0.58480      4.453044
   0.60200      4.528813
   0.61920      4.606711
   0.63640      4.686883
   0.65360      4.769200
   0.67080      4.853662
   0.68800      4.940356
   0.70520      5.029222
   0.72240      5.120268
   0.73960      5.213409
   0.75680      5.308775
   0.77400      5.406323
   0.79120      5.505990
   0.80840      5.607867
   0.82560      5.711910
   0.84280      5.818109
   0.86000      5.926382
   0.87720      6.036881
   0.89440      6.109610
   0.91160      5.956453
   0.92880      5.803299
   0.94600      5.650489
   0.96320      5.496230
   0.98040      5.343119
   0.99760      5.191930
   1.01480      5.041618
   1.03200      4.891817
   1.04920      4.740833
   1.06640      4.593611
   1.08360      4.446205
   1.10080      4.301160
   1.11800      4.155790
   1.13520      4.010290
   1.15240      3.866813
   1.16960      3.724596
   1.18680      3.583345
   1.20400      3.443354
   1.22120      3.301159
   1.23840      3.165412
   1.25560      3.028946
   1.27280      2.893784
   1.29000      2.760045
   1.30720      2.625613
   1.32440      2.495638
   1.34160      2.365987
   1.35880      2.237706
   1.37601      2.110939
   1.39321      1.985602
   1.41041      1.860094
   1.42761      1.736910
   1.44481      1.617848
   1.46201      1.498603
   1.47921      1.378619
   1.49641      1.259147
   1.51361      1.144949
   1.53081      1.032742
   1.54801      0.919826
   1.56521      0.810312
   1.58241      0.702483
   1.59961      0.594944
   1.61681      0.490524
   1.63401      0.388376
   1.65121      0.286711
   1.66841      0.187568
   1.68561      0.090447
   1.70281      0.012453
   1.70281      0.012453
   1.72556      0.112667
   1.74831      0.234909
   1.77107      0.353816
   1.79382      0.468717
   1.81657      0.580694
   1.83933      0.691547
   1.86208      0.796810
   1.88483      0.901830
   1.90758      1.001063
   1.93034      1.098260
   1.95309      1.191733
   1.97584      1.283186
   1.99860      1.368937
   2.02135      1.452843
   2.04410      1.535359
   2.06686      1.615890
   2.08961      1.694558
   2.11236      1.769923
   2.13512      1.843673
   2.15787      1.916533
   2.18062      1.987511
   2.20338      2.055605
   2.22613      2.123696
   2.24888      2.189635
   2.27164      2.257063
   2.29439      2.321688
   2.31714      2.386915
   2.33989      2.451055
   2.36265      2.516192
   2.38540      2.578161
   2.40815      2.641801
   2.43091      2.704900
   2.45366      2.768956
   2.47641      2.832175
   2.49917      2.895011
   2.52192      2.959792
   2.54467      3.022795
   2.56743      3.085654
   2.59018      3.146512
   2.61293      3.208525
   2.63569      3.271953
   2.65844      3.332526
   2.68119      3.393754
   2.70395      3.454439
   2.72670      3.513299
   2.74945      3.572857
   2.77220      3.631472
   2.79496      3.686161
   2.81771      3.739489
   2.84046      3.791202
   2.86322      3.837055
   2.88597      3.882622
   2.90872      3.923965
   2.93148      3.963153
   2.95423      3.998493
   2.97698      4.028460
   2.99974      4.053906
   3.02249      4.075511
   3.04524      4.087569
   3.06800      4.095318
   3.09075      4.099086
   3.11350      4.094937
   3.13626      4.084348
   3.15901      4.067221
   3.18176      4.043571
   3.20452      4.010361
   3.22727      3.972684
   3.25002      3.925463
   3.27277      3.873033
   3.29553      3.813301
   3.31828      3.747437
   3.34103      3.675774
   3.36379      3.598878
   3.38654      3.517856
   3.40929      3.433589
   3.43205      3.344978
   3.45480      3.253123
   3.47755      3.155901
   3.50031      3.060638
   3.52306      2.963779
   3.54581      2.866334
   3.56857      2.766029
   3.59132      2.666965
   3.61407      2.571223
   3.63683      2.475524
   3.65958      2.383081
   3.68233      2.293883
   3.70508      2.208248
   3.72784      2.126102
   3.75059      2.050042
   3.77334      1.979518
   3.79610      1.915848
   3.81885      1.858781
   3.84160      1.808594
   3.86436      1.767208
   3.88711      1.733382
   3.90986      1.709607
   3.93262      1.694918
   3.95537      1.689283
   3.95537      1.689283
   3.97026      1.694987
   3.98516      1.710021
   4.00006      1.734898
   4.01495      1.770542
   4.02985      1.814041
   4.04474      1.866210
   4.05964      1.926364
   4.07453      1.995530
   4.08943      2.070594
   4.10432      2.152121
   4.11922      2.239656
   4.13411      2.331882
   4.14901      2.430073
   4.16391      2.532887
   4.17880      2.639173
   4.19370      2.749937
   4.20859      2.866008
   4.22349      2.984446
   4.23838      3.104841
   4.25328      3.227917
   4.26817      3.353117
   4.28307      3.482211
   4.29796      3.611887
   4.31286      3.746244
   4.32775      3.881670
   4.34265      4.016355
   4.35755      4.152485
   4.37244      4.289325
   4.38734      4.426682
   4.40223      4.565537
   4.41713      4.705524
   4.43202      4.851404
   4.44692      4.992490
   4.46181      5.133736
   4.47671      5.275530
   4.49160      5.417210
   4.50650      5.557298
   4.52139      5.698221
   4.53629      5.837777
   4.55119      5.977165
   4.56608      5.947159
   4.58098      5.853102
   4.59587      5.760721
   4.61077      5.669836
   4.62566      5.580524
   4.64056      5.492818
   4.65545      5.406787
   4.67035      5.322288
   4.68524      5.239487
   4.70014      5.158217
   4.71503      5.078618
   4.72993      5.000570
   4.74483      4.924168
   4.75972      4.849449
   4.77462      4.776352
   4.78951      4.704834
   4.80441      4.634950
   4.81930      4.566745
   4.83420      4.500121
   4.84909      4.435188
   4.86399      4.371874
   4.87888      4.310157
   4.89378      4.250069
   4.90867      4.191636
   4.92357      4.134913
   4.93847      4.079763
   4.95336      4.026257
   4.96826      3.974418
   4.98315      3.924189
   4.99805      3.875643
   5.01294      3.828730
   5.02784      3.783435
   5.04273      3.739825
   5.05763      3.697854
   5.07252      3.657489
   5.08742      3.618798
   5.10232      3.581734
   5.11721      3.546348
   5.13211      3.512604
   5.14700      3.480485
   5.16190      3.450058
   5.17679      3.421231
   5.19169      3.394071
   5.20658      3.368542
   5.22148      3.344702
   5.23637      3.322466
   5.25127      3.301896
   5.26616      3.282977
   5.28106      3.265702
   5.29596      3.250080
   5.31085      3.236098
   5.32575      3.223763
   5.34064      3.213080
   5.35554      3.204039
   5.37043      3.196662
   5.38533      3.190890
   5.40022      3.186769
   5.41512      3.184282
   5.43001      3.183434
 
 
# Band-Index    6
   5.43001      3.835468
   5.41512      3.836312
   5.40022      3.838821
   5.38533      3.842956
   5.37043      3.848831
   5.35554      3.856376
   5.34064      3.865606
   5.32575      3.876519
   5.31085      3.889106
   5.29596      3.903376
   5.28106      3.919317
   5.26616      3.936932
   5.25127      3.956280
   5.23637      3.977266
   5.22148      3.999920
   5.20658      4.024250
   5.19169      4.050251
   5.17679      4.077944
   5.16190      4.107248
   5.14700      4.138281
   5.13211      4.170985
   5.11721      4.205361
   5.10232      4.241411
   5.08742      4.279140
   5.07252      4.318575
   5.05763      4.359722
   5.04273      4.402470
   5.02784      4.446850
   5.01294      4.492946
   4.99805      4.540704
   4.98315      4.590129
   4.96826      4.641229
   4.95336      4.693981
   4.93847      4.748401
   4.92357      4.804435
   4.90867      4.862178
   4.89378      4.921580
   4.87888      4.982709
   4.86399      5.045423
   4.84909      5.109768
   4.83420      5.175739
   4.81930      5.243341
   4.80441      5.312587
   4.78951      5.383456
   4.77462      5.455911
   4.75972      5.529938
   4.74483      5.605496
   4.72993      5.682551
   4.71503      5.761156
   4.70014      5.841023
   4.68524      5.922085
   4.67035      6.003948
   4.65545      6.086216
   4.64056      6.167346
   4.62566      6.244002
   4.61077      6.303585
   4.59587      6.305285
   4.58098      6.225815
   4.56608      6.110301
   4.55119      6.042840
   4.53629      6.140000
   4.52139      6.238678
   4.50650      6.338905
   4.49160      6.440666
   4.47671      6.543758
   4.46181      6.648351
   4.44692      6.754120
   4.43202      6.861185
   4.41713      6.969126
   4.40223      7.077547
   4.38734      7.185771
   4.37244      7.291686
   4.35755      7.390458
   4.34265      7.469393
   4.32775      7.512882
   4.31286      7.525378
   4.29796      7.525246
   4.28307      7.517308
   4.26817      7.507107
   4.25328      7.495943
   4.23838      7.485349
   4.22349      7.474266
   4.20859      7.463456
   4.19370      7.452502
   4.17880      7.442579
   4.16391      7.433078
   4.14901      7.424137
   4.13411      7.415766
   4.11922      7.408556
   4.10432      7.401948
   4.08943      7.396055
   4.07453      7.390556
   4.05964      7.385107
   4.04474      7.380735
   4.02985      7.376955
   4.01495      7.373859
   4.00006      7.371124
   3.98516      7.369408
   3.97026      7.368416
   3.95537      7.368623
   3.95537      7.368623
   3.93262      7.373823
   3.90986      7.389736
   3.88711      7.416659
   3.86436      7.454446
   3.84160      7.502283
   3.81885      7.560876
   3.79610      7.629119
   3.77334      7.707611
   3.75059      7.795787
   3.72784      7.893168
   3.70508      7.999845
   3.68233      8.114858
   3.65958      8.237811
   3.63683      8.368119
   3.61407      8.505924
   3.59132      8.647362
   3.56857      8.785393
   3.54581      8.853204
   3.52306      8.800558
   3.50031      8.722983
   3.47755      8.643553
   3.45480      8.566301
   3.43205      8.491947
   3.40929      8.421100
   3.38654      8.353699
   3.36379      8.289955
   3.34103      8.229772
   3.31828      8.173389
   3.29553      8.120833
   3.27277      8.071960
   3.25002      8.026832
   3.22727      7.985484
   3.20452      7.947928
   3.18176      7.914053
   3.15901      7.883990
   3.13626      7.857676
   3.11350      7.835223
   3.09075      7.816469
   3.06800      7.801489
   3.04524      7.790272
   3.02249      7.782827
   2.99974      7.779015
   2.97698      7.778951
   2.95423      7.782603
   2.93148      7.789780
   2.90872      7.800467
   2.88597      7.814532
   2.86322      7.831698
   2.84046      7.851281
   2.81771      7.871819
   2.79496      7.889463
   2.77220      7.890199
   2.74945      7.849025
   2.72670      7.778049
   2.70395      7.706829
   2.68119      7.645072
   2.65844      7.595619
   2.63569      7.560281
   2.61293      7.540526
   2.59018      7.536766
   2.56743      7.548295
   2.54467      7.575403
   2.52192      7.618047
   2.49917      7.676029
   2.47641      7.749077
   2.45366      7.836822
   2.43091      7.938884
   2.40815      8.054517
   2.38540      8.182140
   2.36265      8.322620
   2.33989      8.473388
   2.31714      8.636258
   2.29439      8.809181
   2.27164      8.991079
   2.24888      9.181654
   2.22613      9.381523
   2.20338      9.587019
   2.18062      9.799655
   2.15787     10.014582
   2.13512     10.232376
   2.11236     10.447024
   2.08961     10.643729
   2.06686     10.815317
   2.04410     10.973335
   2.02135     11.051002
   1.99860     11.014605
   1.97584     10.969301
   1.95309     10.918135
   1.93034     10.864736
   1.90758     10.811700
   1.88483     10.760879
   1.86208     10.713182
   1.83933     10.670684
   1.81657     10.633572
   1.79382     10.602717
   1.77107     10.578319
   1.74831     10.560565
   1.72556     10.549713
   1.70281     10.545693
   1.70281     10.545693
   1.68561     10.547858
   1.66841     10.553566
   1.65121     10.562494
   1.63401     10.574349
   1.61681     10.588607
   1.59961     10.604880
   1.58241     10.622854
   1.56521     10.641183
   1.54801     10.659295
   1.53081     10.676243
   1.51361     10.690519
   1.49641     10.700689
   1.47921     10.705302
   1.46201     10.701520
   1.44481     10.687327
   1.42761     10.639385
   1.41041     10.468892
   1.39321     10.299779
   1.37601     10.131889
   1.35880      9.965030
   1.34160      9.800285
   1.32440      9.636038
   1.30720      9.473560
   1.29000      9.312751
   1.27280      9.153615
   1.25560      8.996293
   1.23840      8.840794
   1.22120      8.687269
   1.20400      8.535523
   1.18680      8.385673
   1.16960      8.237726
   1.15240      8.091797
   1.13520      7.947999
   1.11800      7.806097
   1.10080      7.666195
   1.08360      7.528269
   1.06640      7.392553
   1.04920      7.258748
   1.03200      7.127055
   1.01480      6.997464
   0.99760      6.869958
   0.98040      6.744660
   0.96320      6.621377
   0.94600      6.500214
   0.92880      6.381177
   0.91160      6.264319
   0.89440      6.149528
   0.87720      6.262798
   0.86000      6.416641
   0.84280      6.512186
   0.82560      6.404754
   0.80840      6.299358
   0.79120      6.196110
   0.77400      6.094991
   0.75680      5.996080
   0.73960      5.899350
   0.72240      5.804831
   0.70520      5.712442
   0.68800      5.622248
   0.67080      5.534253
   0.65360      5.448464
   0.63640      5.364879
   0.61920      5.283482
   0.60200      5.204310
   0.58480      5.127334
   0.56760      5.052468
   0.55040      4.979947
   0.53320      4.909619
   0.51600      4.841510
   0.49880      4.775632
   0.48160      4.711966
   0.46440      4.650565
   0.44720      4.591358
   0.43000      4.534365
   0.41280      4.479638
   0.39560      4.427109
   0.37840      4.376803
   0.36120      4.328747
   0.34400      4.282905
   0.32680      4.239302
   0.30960      4.197892
   0.29240      4.158740
   0.27520      4.121769
   0.25800      4.087090
   0.24080      4.054654
   0.22360      4.024450
   0.20640      3.996494
   0.18920      3.970789
   0.17200      3.947307
   0.15480      3.926047
   0.13760      3.906986
   0.12040      3.890204
   0.10320      3.875652
   0.08600      3.863350
   0.06880      3.853276
   0.05160      3.845512
   0.03440      3.839917
   0.01720      3.836587
   0.00000      3.835468
 
 
# Band-Index    7
   0.00000      3.962768
   0.01720      3.963894
   0.03440      3.967275
   0.05160      3.972909
   0.06880      3.980795
   0.08600      3.990935
   0.10320      4.003328
   0.12040      4.017975
   0.13760      4.034875
   0.15480      4.054029
   0.17200      4.075436
   0.18920      4.099096
   0.20640      4.125010
   0.22360      4.153177
   0.24080      4.183599
   0.25800      4.216273
   0.27520      4.251201
   0.29240      4.288382
   0.30960      4.327815
   0.32680      4.369507
   0.34400      4.413449
   0.36120      4.459644
   0.37840      4.508095
   0.39560      4.558797
   0.41280      4.611752
   0.43000      4.666956
   0.44720      4.724424
   0.46440      4.784138
   0.48160      4.846107
   0.49880      4.910329
   0.51600      4.976805
   0.53320      5.045535
   0.55040      5.116517
   0.56760      5.189754
   0.58480      5.265244
   0.60200      5.342987
   0.61920      5.422983
   0.63640      5.505233
   0.65360      5.589736
   0.67080      5.676491
   0.68800      5.765503
   0.70520      5.856761
   0.72240      5.950277
   0.73960      6.046048
   0.75680      6.144067
   0.77400      6.244343
   0.79120      6.346870
   0.80840      6.451653
   0.82560      6.558688
   0.84280      6.571123
   0.86000      6.622103
   0.87720      6.733888
   0.89440      6.847825
   0.91160      6.963841
   0.92880      7.081959
   0.94600      7.202111
   0.96320      7.324285
   0.98040      7.448488
   0.99760      7.574638
   1.01480      7.702630
   1.03200      7.832649
   1.04920      7.964635
   1.06640      8.098377
   1.08360      8.233721
   1.10080      8.370891
   1.11800      8.509342
   1.13520      8.649264
   1.15240      8.790371
   1.16960      8.932553
   1.18680      9.075588
   1.20400      9.218973
   1.22120      9.362293
   1.23840      9.505123
   1.25560      9.646715
   1.27280      9.786132
   1.29000      9.922182
   1.30720     10.053236
   1.32440     10.177540
   1.34160     10.293070
   1.35880     10.396933
   1.37601     10.486708
   1.39321     10.561155
   1.41041     10.618658
   1.42761     10.660301
   1.44481     10.810675
   1.46201     10.982522
   1.47921     11.154678
   1.49641     11.326935
   1.51361     11.498876
   1.53081     11.670015
   1.54801     11.840108
   1.56521     12.006860
   1.58241     12.169976
   1.59961     12.328120
   1.61681     12.478939
   1.63401     12.620713
   1.65121     12.747848
   1.66841     12.858324
   1.68561     12.943908
   1.70281     12.997170
   1.70281     12.997170
   1.72556     12.933736
   1.74831     12.849917
   1.77107     12.744682
   1.79382     12.624649
   1.81657     12.491156
   1.83933     12.350011
   1.86208     12.201680
   1.88483     12.050900
   1.90758     11.897840
   1.93034     11.743041
   1.95309     11.588648
   1.97584     11.434459
   1.99860     11.280398
   2.02135     11.127201
   2.04410     11.073409
   2.06686     10.986922
   2.08961     10.780744
   2.11236     10.604635
   2.13512     10.451441
   2.15787     10.309740
   2.18062     10.174504
   2.20338     10.043242
   2.22613      9.916139
   2.24888      9.792666
   2.27164      9.672969
   2.29439      9.556917
   2.31714      9.444439
   2.33989      9.335586
   2.36265      9.230492
   2.38540      9.128899
   2.40815      9.031048
   2.43091      8.936767
   2.45366      8.846244
   2.47641      8.759474
   2.49917      8.676422
   2.52192      8.597205
   2.54467      8.521718
   2.56743      8.450130
   2.59018      8.382418
   2.61293      8.318752
   2.63569      8.259201
   2.65844      8.204053
   2.68119      8.153750
   2.70395      8.109457
   2.72670      8.074172
   2.74945      8.058112
   2.77220      8.089553
   2.79496      8.180073
   2.81771      8.303378
   2.84046      8.447080
   2.86322      8.574985
   2.88597      8.552999
   2.90872      8.534731
   2.93148      8.520242
   2.95423      8.509477
   2.97698      8.502434
   2.99974      8.499274
   3.02249      8.500068
   3.04524      8.504575
   3.06800      8.512946
   3.09075      8.525447
   3.11350      8.541962
   3.13626      8.562536
   3.15901      8.587250
   3.18176      8.616129
   3.20452      8.649195
   3.22727      8.686480
   3.25002      8.727898
   3.27277      8.773775
   3.29553      8.823774
   3.31828      8.877965
   3.34103      8.936381
   3.36379      8.999087
   3.38654      9.065728
   3.40929      9.136612
   3.43205      9.211494
   3.45480      9.290485
   3.47755      9.373476
   3.50031      9.328885
   3.52306      9.165785
   3.54581      9.038611
   3.56857      9.041312
   3.59132      9.122065
   3.61407      9.218213
   3.63683      9.320984
   3.65958      9.428619
   3.68233      9.540492
   3.70508      9.656318
   3.72784      9.775988
   3.75059      9.899275
   3.77334     10.026385
   3.79610     10.157047
   3.81885     10.291303
   3.84160     10.428899
   3.86436     10.569778
   3.88711     10.713508
   3.90986     10.859513
   3.93262     11.004233
   3.95537     11.104090
   3.95537     11.104090
   3.97026     11.003158
   3.98516     10.855464
   4.00006     10.704350
   4.01495     10.553495
   4.02985     10.403249
   4.04474     10.254113
   4.05964     10.106224
   4.07453      9.959659
   4.08943      9.814471
   4.10432      9.670757
   4.11922      9.528394
   4.13411      9.387572
   4.14901      9.248320
   4.16391      9.110560
   4.17880      8.974442
   4.19370      8.839889
   4.20859      8.707022
   4.22349      8.575932
   4.23838      8.446708
   4.25328      8.319572
   4.26817      8.194827
   4.28307      8.073069
   4.29796      7.955606
   4.31286      7.845545
   4.32775      7.751220
   4.34265      7.688962
   4.35755      7.665272
   4.37244      7.663248
   4.38734      7.670116
   4.40223      7.680443
   4.41713      7.694363
   4.43202      7.605126
   4.44692      7.494759
   4.46181      7.386180
   4.47671      7.279414
   4.49160      7.174557
   4.50650      7.071631
   4.52139      6.971022
   4.53629      6.873037
   4.55119      6.778553
   4.56608      6.689644
   4.58098      6.612087
   4.59587      6.565793
   4.61077      6.518786
   4.62566      6.426693
   4.64056      6.336288
   4.65545      6.247574
   4.67035      6.160547
   4.68524      6.075207
   4.70014      5.991560
   4.71503      5.909600
   4.72993      5.829332
   4.74483      5.750750
   4.75972      5.673859
   4.77462      5.598658
   4.78951      5.525146
   4.80441      5.453323
   4.81930      5.383191
   4.83420      5.314747
   4.84909      5.247995
   4.86399      5.182932
   4.87888      5.119558
   4.89378      5.057873
   4.90867      4.997879
   4.92357      4.939575
   4.93847      4.882962
   4.95336      4.828037
   4.96826      4.774803
   4.98315      4.723260
   4.99805      4.673406
   5.01294      4.625237
   5.02784      4.578768
   5.04273      4.533980
   5.05763      4.490883
   5.07252      4.449477
   5.08742      4.409762
   5.10232      4.371742
   5.11721      4.335403
   5.13211      4.300760
   5.14700      4.267806
   5.16190      4.236542
   5.17679      4.206967
   5.19169      4.179082
   5.20658      4.152887
   5.22148      4.128383
   5.23637      4.105568
   5.25127      4.084443
   5.26616      4.065009
   5.28106      4.047264
   5.29596      4.031210
   5.31085      4.016846
   5.32575      4.004172
   5.34064      3.993187
   5.35554      3.983893
   5.37043      3.976288
   5.38533      3.970373
   5.40022      3.966148
   5.41512      3.963613
   5.43001      3.962768
 
 
# Band-Index    8
   5.43001      4.054358
   5.41512      4.055203
   5.40022      4.057729
   5.38533      4.061923
   5.37043      4.067825
   5.35554      4.075411
   5.34064      4.084685
   5.32575      4.095647
   5.31085      4.108293
   5.29596      4.122630
   5.28106      4.138646
   5.26616      4.156349
   5.25127      4.175758
   5.23637      4.196839
   5.22148      4.219602
   5.20658      4.244052
   5.19169      4.270184
   5.17679      4.298008
   5.16190      4.327496
   5.14700      4.358687
   5.13211      4.391562
   5.11721      4.426124
   5.10232      4.462369
   5.08742      4.500299
   5.07252      4.539927
   5.05763      4.581268
   5.04273      4.624243
   5.02784      4.668895
   5.01294      4.715261
   4.99805      4.763290
   4.98315      4.813011
   4.96826      4.864418
   4.95336      4.917504
   4.93847      4.972273
   4.92357      5.028708
   4.90867      5.086840
   4.89378      5.146654
   4.87888      5.208170
   4.86399      5.271345
   4.84909      5.336190
   4.83420      5.402706
   4.81930      5.470895
   4.80441      5.540761
   4.78951      5.612295
   4.77462      5.685489
   4.75972      5.760349
   4.74483      5.836817
   4.72993      5.914927
   4.71503      5.994690
   4.70014      6.075991
   4.68524      6.158804
   4.67035      6.243013
   4.65545      6.328211
   4.64056      6.413944
   4.62566      6.496501
   4.61077      6.559287
   4.59587      6.612567
   4.58098      6.708035
   4.56608      6.805193
   4.55119      6.904038
   4.53629      7.004562
   4.52139      7.106762
   4.50650      7.210641
   4.49160      7.316188
   4.47671      7.423361
   4.46181      7.532192
   4.44692      7.674856
   4.43202      7.706500
   4.41713      7.717138
   4.40223      7.830946
   4.38734      7.946425
   4.37244      8.063749
   4.35755      8.182575
   4.34265      8.303045
   4.32775      8.425152
   4.31286      8.548868
   4.29796      8.674280
   4.28307      8.801235
   4.26817      8.929734
   4.25328      9.059857
   4.23838      9.191671
   4.22349      9.324958
   4.20859      9.459754
   4.19370      9.596284
   4.17880      9.734209
   4.16391      9.873563
   4.14901     10.014491
   4.13411     10.156871
   4.11922     10.300829
   4.10432     10.446188
   4.08943     10.592727
   4.07453     10.740767
   4.05964     10.890114
   4.04474     11.040704
   4.02985     11.192443
   4.01495     11.345182
   4.00006     11.498462
   3.98516     11.498220
   3.97026     11.347083
   3.95537     11.245066
   3.95537     11.245066
   3.93262     11.348103
   3.90986     11.502172
   3.88711     11.505731
   3.86436     11.358376
   3.84160     11.213784
   3.81885     11.072168
   3.79610     10.933693
   3.77334     10.798664
   3.75059     10.667110
   3.72784     10.539040
   3.70508     10.414518
   3.68233     10.293519
   3.65958     10.176168
   3.63683     10.062511
   3.61407      9.952661
   3.59132      9.846598
   3.56857      9.744305
   3.54581      9.645875
   3.52306      9.551167
   3.50031      9.460351
   3.47755      9.498801
   3.45480      9.527010
   3.43205      9.439016
   3.40929      9.364485
   3.38654      9.293851
   3.36379      9.227142
   3.34103      9.164350
   3.31828      9.105511
   3.29553      9.050608
   3.27277      8.999645
   3.25002      8.952621
   3.22727      8.909539
   3.20452      8.870398
   3.18176      8.835199
   3.15901      8.803942
   3.13626      8.776625
   3.11350      8.753251
   3.09075      8.733819
   3.06800      8.718325
   3.04524      8.706773
   3.02249      8.699161
   2.99974      8.695486
   2.97698      8.695742
   2.95423      8.699928
   2.93148      8.708019
   2.90872      8.720128
   2.88597      8.763056
   2.86322      8.603177
   2.84046      8.600770
   2.81771      8.630113
   2.79496      8.663113
   2.77220      8.699992
   2.74945      8.740421
   2.72670      8.784455
   2.70395      8.832246
   2.68119      8.883720
   2.65844      8.938821
   2.63569      8.997548
   2.61293      9.059843
   2.59018      9.125941
   2.56743      9.195549
   2.54467      9.268675
   2.52192      9.345325
   2.49917      9.425361
   2.47641      9.508892
   2.45366      9.595670
   2.43091      9.685754
   2.40815      9.779115
   2.38540      9.875169
   2.36265      9.974120
   2.33989     10.075406
   2.31714     10.178929
   2.29439     10.284029
   2.27164     10.390386
   2.24888     10.496542
   2.22613     10.601674
   2.20338     10.703721
   2.18062     10.800528
   2.15787     10.888459
   2.13512     10.964067
   2.11236     11.022871
   2.08961     11.061634
   2.06686     11.078063
   2.04410     11.212069
   2.02135     11.442318
   1.99860     11.673834
   1.97584     11.902766
   1.95309     12.126233
   1.93034     12.343424
   1.90758     12.543766
   1.88483     12.725426
   1.86208     12.864820
   1.83933     12.951978
   1.81657     12.996448
   1.79382     13.023912
   1.77107     13.043356
   1.74831     13.054567
   1.72556     13.047757
   1.70281     13.012105
   1.70281     13.012105
   1.68561     13.049770
   1.66841     13.085928
   1.65121     13.118673
   1.63401     13.147317
   1.61681     13.170267
   1.59961     13.189475
   1.58241     13.203664
   1.56521     13.213313
   1.54801     13.043005
   1.53081     12.849784
   1.51361     12.658636
   1.49641     12.469581
   1.47921     12.282611
   1.46201     12.097712
   1.44481     11.914812
   1.42761     11.733835
   1.41041     11.554719
   1.39321     11.377391
   1.37601     11.201796
   1.35880     11.027870
   1.34160     10.855785
   1.32440     10.642209
   1.30720     10.469896
   1.29000     10.299847
   1.27280     10.132028
   1.25560      9.966464
   1.23840      9.803148
   1.22120      9.642079
   1.20400      9.483258
   1.18680      9.326685
   1.16960      9.172362
   1.15240      9.020294
   1.13520      8.870472
   1.11800      8.722900
   1.10080      8.577577
   1.08360      8.434505
   1.06640      8.293687
   1.04920      8.155118
   1.03200      8.018802
   1.01480      7.884738
   0.99760      7.752932
   0.98040      7.623374
   0.96320      7.496065
   0.94600      7.371009
   0.92880      7.248205
   0.91160      7.127655
   0.89440      7.009355
   0.87720      6.893307
   0.86000      6.779514
   0.84280      6.667975
   0.82560      6.642484
   0.80840      6.535899
   0.79120      6.431556
   0.77400      6.329421
   0.75680      6.229514
   0.73960      6.131820
   0.72240      6.036399
   0.70520      5.943201
   0.68800      5.852247
   0.67080      5.763525
   0.65360      5.677047
   0.63640      5.592812
   0.61920      5.510812
   0.60200      5.431059
   0.58480      5.353544
   0.56760      5.278238
   0.55040      5.205217
   0.53320      5.134432
   0.51600      5.065890
   0.49880      4.999597
   0.48160      4.935544
   0.46440      4.873751
   0.44720      4.814192
   0.43000      4.756878
   0.41280      4.701817
   0.39560      4.648995
   0.37840      4.598419
   0.36120      4.550094
   0.34400      4.504011
   0.32680      4.460173
   0.30960      4.418574
   0.29240      4.379225
   0.27520      4.342109
   0.25800      4.307260
   0.24080      4.274661
   0.22360      4.244309
   0.20640      4.216209
   0.18920      4.190363
   0.17200      4.166760
   0.15480      4.145399
   0.13760      4.126274
   0.12040      4.109411
   0.10320      4.094795
   0.08600      4.082431
   0.06880      4.072311
   0.05160      4.064467
   0.03440      4.058846
   0.01720      4.055482
   0.00000      4.054358
