#K-Path(1/A)         Spin-Up(eV)   Spin-down(eV)
# NKPTS & NBANDS: 100  10
# Band-Index    1
   0.00000     -8.329487     -8.345814
   0.15537     -8.230741     -8.246981
   0.31075     -7.937689     -7.953477
   0.46612     -7.460704     -7.474953
   0.62150     -6.820202     -6.829945
   0.77687     -6.053390     -6.051064
   0.93225     -5.227704     -5.195172
   1.08762     -4.457772     -4.358030
   1.24300     -3.883581     -3.669807
   1.39837     -3.550176     -3.214552
   1.55374     -3.361854     -2.943445
   1.70912     -3.221045     -2.756461
   1.86449     -3.093310     -2.601280
   2.01987     -3.012387     -2.523115
   2.17524     -3.100929     -2.654290
   2.33062     -3.359393     -2.939523
   2.48599     -3.664727     -3.263815
   2.64136     -3.928572     -3.541139
   2.79674     -4.102934     -3.723587
   2.95211     -4.163552     -3.786896
   2.95211     -4.163552     -3.786896
   3.08462     -4.117147     -3.737917
   3.21712     -3.982611     -3.595587
   3.34962     -3.773802     -3.373632
   3.48213     -3.512823     -3.094267
   3.61463     -3.227645     -2.786314
   3.74714     -2.948216     -2.481744
   3.87964     -2.974214     -2.556029
   4.01214     -3.095101     -2.677392
   4.14465     -3.156358     -2.738365
   4.27715     -3.156359     -2.738366
   4.40965     -3.095102     -2.677394
   4.54216     -2.974215     -2.556032
   4.67466     -2.948208     -2.481740
   4.80717     -3.227635     -2.786309
   4.93967     -3.512812     -3.094261
   5.07217     -3.773790     -3.373626
   5.20468     -3.982598     -3.595580
   5.33718     -4.117134     -3.737910
   5.46968     -4.163539     -3.786888
   5.46968     -4.163539     -3.786888
   5.54737     -4.167066     -3.794815
   5.62506     -4.178767     -3.820072
   5.70275     -4.201991     -3.866924
   5.78043     -4.242437     -3.941975
   5.85812     -4.307869     -4.052676
   5.93581     -4.406646     -4.204223
   6.01349     -4.544693     -4.396092
   6.09118     -4.721384     -4.620302
   6.16887     -4.927864     -4.863472
   6.24656     -5.149842     -5.110893
   6.32424     -5.371986     -5.349319
   6.40193     -5.581096     -5.568182
   6.47962     -5.767080     -5.759574
   6.55730     -5.922656     -5.917755
   6.63499     -6.042693     -6.038602
   6.71268     -6.123674     -6.119232
   6.79037     -6.163345     -6.157769
   6.86805     -6.160448     -6.153167
   6.94574     -6.114594     -6.105125
   6.94574     -6.114594     -6.105125
   6.98631     -6.315080     -6.312011
   7.02688     -6.511710     -6.513532
   7.06745     -6.702787     -6.708329
   7.10802     -6.886939     -6.895299
   7.14859     -7.062931     -7.073416
   7.18917     -7.229783     -7.241862
   7.22974     -7.386682     -7.399954
   7.27031     -7.533001     -7.547156
   7.31088     -7.668115     -7.682919
   7.35145     -7.791548     -7.806826
   7.39202     -7.902902     -7.918520
   7.43259     -8.001890     -8.017750
   7.47316     -8.088189     -8.104221
   7.51373     -8.161552     -8.177700
   7.55430     -8.221809     -8.238034
   7.59487     -8.268855     -8.285130
   7.63544     -8.302531     -8.318836
   7.67602     -8.322756     -8.339078
   7.71659     -8.329487     -8.345814
   7.71659     -8.329487     -8.345814
   7.79773     -8.302531     -8.318836
   7.87887     -8.221809     -8.238034
   7.96001     -8.088189     -8.104221
   8.04115     -7.902901     -7.918520
   8.12229     -7.668114     -7.682919
   8.20344     -7.386681     -7.399954
   8.28458     -7.062930     -7.073415
   8.36572     -6.702785     -6.708329
   8.44686     -6.315077     -6.312010
   8.52800     -5.912301     -5.894513
   8.60914     -5.512495     -5.470315
   8.69029     -5.139093     -5.058823
   8.77143     -4.817893     -4.684134
   8.85257     -4.567522     -4.369723
   8.93371     -4.391073     -4.129959
   9.01485     -4.277116     -3.964001
   9.09599     -4.209430     -3.860118
   9.17714     -4.174326     -3.804337
   9.25828     -4.163539     -3.786888
 
# Band-Index    2
   9.25828     -1.815843     -1.220780
   9.17714     -1.811644     -1.216216
   9.09599     -1.799224     -1.202700
   9.01485     -1.779152     -1.180802
   8.93371     -1.752400     -1.151491
   8.85257     -1.720377     -1.116173
   8.77143     -1.685019     -1.307958
   8.69029     -1.894470     -1.449737
   8.60914     -2.021005     -1.521181
   8.52800     -2.079175     -1.540213
   8.44686     -2.089535     -1.522912
   8.36572     -2.068690     -1.482023
   8.28458     -2.028944     -1.427236
   8.20344     -1.979507     -1.366163
   8.12229     -1.927278     -1.304784
   8.04115     -1.877683     -1.248016
   7.96001     -1.834861     -1.199739
   7.87887     -1.802040     -1.163062
   7.79773     -1.781426     -1.140142
   7.71659     -1.774432     -1.132378
   7.71659     -1.774432     -1.132378
   7.67602     -1.776181     -1.134319
   7.63544     -1.781430     -1.140144
   7.59487     -1.790099     -1.149773
   7.55430     -1.802044     -1.163064
   7.51373     -1.817041     -1.179794
   7.47316     -1.834864     -1.199741
   7.43259     -1.855201     -1.222600
   7.39202     -1.877687     -1.248018
   7.35145     -1.901869     -1.275559
   7.31088     -1.927281     -1.304785
   7.27031     -1.953372     -1.335179
   7.22974     -1.979509     -1.366164
   7.18917     -2.004962     -1.397079
   7.14859     -2.028946     -1.427236
   7.10802     -2.050542     -1.455848
   7.06745     -2.068691     -1.482023
   7.02688     -2.082154     -1.504747
   6.98631     -2.089535     -1.522911
   6.94574     -2.089183     -1.535226
   6.94574     -2.089183     -1.535226
   6.86805     -2.102854     -1.543087
   6.79037     -2.135233     -1.568234
   6.71268     -2.177790     -1.603720
   6.63499     -2.223124     -1.643358
   6.55730     -2.265282     -1.682122
   6.47962     -2.299035     -1.715740
   6.40193     -2.318902     -1.739967
   6.32424     -2.318181     -1.749811
   6.24656     -2.288082     -1.738767
   6.16887     -2.217451     -1.698326
   6.09118     -2.093811     -1.618075
   6.01349     -1.906980     -1.487771
   5.93581     -1.785458     -1.307395
   5.85812     -1.796251     -1.216858
   5.78043     -1.804198     -1.215991
   5.70275     -1.809716     -1.218169
   5.62506     -1.813258     -1.219717
   5.54737     -1.815220     -1.220535
   5.46968     -1.815843     -1.220780
   5.46968     -1.815843     -1.220780
   5.33718     -1.849655     -1.263218
   5.20468     -1.951087     -1.393068
   5.07217     -2.118594     -1.608556
   4.93967     -2.339262     -1.876906
   4.80717     -2.578709     -2.144777
   4.67466     -2.798354     -2.376439
   4.54216     -2.703021     -2.212192
   4.40965     -2.518262     -2.007643
   4.27715     -2.417737     -1.895788
   4.14465     -2.417739     -1.895789
   4.01214     -2.518266     -2.007644
   3.87964     -2.703027     -2.212195
   3.74714     -2.798351     -2.376435
   3.61463     -2.578706     -2.144773
   3.48213     -2.339260     -1.876902
   3.34962     -2.118592     -1.608553
   3.21712     -1.951086     -1.393065
   3.08462     -1.849654     -1.263216
   2.95211     -1.815841     -1.220779
   2.95211     -1.815841     -1.220779
   2.79674     -1.859418     -1.275748
   2.64136     -1.987254     -1.440951
   2.48599     -2.187152     -1.698097
   2.33062     -2.424506     -1.980755
   2.17524     -2.644339     -2.223893
   2.01987     -2.797026     -2.400533
   1.86449     -2.866109     -2.460213
   1.70912     -2.879594     -2.449925
   1.55374     -2.844535     -2.394362
   1.39837     -2.778622     -2.306433
   1.24300     -2.704738     -2.204052
   1.08762     -2.620893     -2.086975
   0.93225     -2.505131     -1.942209
   0.77687     -2.355449     -1.769694
   0.62150     -2.188771     -1.584374
   0.46612     -2.027556     -1.407737
   0.31075     -1.893678     -1.261925
   0.15537     -1.805280     -1.165874
   0.00000     -1.774432     -1.132378
 
# Band-Index    3
   0.00000     -1.774427     -1.132376
   0.15537     -1.749928     -1.107102
   0.31075     -1.679107     -1.034347
   0.46612     -1.575159     -0.929519
   0.62150     -1.492216     -0.856944
   0.77687     -1.534692     -0.925727
   0.93225     -1.664048     -1.077971
   1.08762     -1.779467     -1.215544
   1.24300     -1.814614     -1.275726
   1.39837     -1.765895     -1.244911
   1.55374     -1.715781     -1.195663
   1.70912     -1.738372     -1.213484
   1.86449     -1.845240     -1.319286
   2.01987     -1.973266     -1.447489
   2.17524     -1.986048     -1.462062
   2.33062     -1.822125     -1.316429
   2.48599     -1.517701     -1.058067
   2.64136     -1.663944     -1.064881
   2.79674     -1.776994     -1.180888
   2.95211     -1.815841     -1.220779
   2.95211     -1.815841     -1.220779
   3.08462     -1.786317     -1.190425
   3.21712     -1.698743     -1.100512
   3.34962     -1.556955     -0.955332
   3.48213     -1.672409     -1.182086
   3.61463     -1.914626     -1.397556
   3.74714     -2.103277     -1.576985
   3.87964     -2.247675     -1.720577
   4.01214     -2.347202     -1.821966
   4.14465     -2.398265     -1.874594
   4.27715     -2.398265     -1.874595
   4.40965     -2.347203     -1.821967
   4.54216     -2.247676     -1.720579
   4.67466     -2.103279     -1.576988
   4.80717     -1.914629     -1.397560
   4.93967     -1.672414     -1.182092
   5.07217     -1.556957     -0.955334
   5.20468     -1.698746     -1.100514
   5.33718     -1.786319     -1.190427
   5.46968     -1.815842     -1.220780
   5.46968     -1.815842     -1.220780
   5.54737     -1.810959     -1.215639
   5.62506     -1.796374     -1.200281
   5.70275     -1.772290     -1.174914
   5.78043     -1.739052     -1.139890
   5.85812     -1.697135     -1.095688
   5.93581     -1.653961     -1.178167
   6.01349     -1.771052     -1.176862
   6.09118     -1.753476     -1.162034
   6.16887     -1.732473     -1.141580
   6.24656     -1.708618     -1.116763
   6.32424     -1.682902     -1.088738
   6.40193     -1.656729     -1.059049
   6.47962     -1.631843     -1.029650
   6.55730     -1.610124     -1.002695
   6.63499     -1.593223     -0.980168
   6.71268     -1.582200     -0.963534
   6.79037     -1.577003     -0.953323
   6.86805     -1.576234     -0.949076
   6.94574     -1.577854     -0.950007
   6.94574     -1.577854     -0.950007
   6.98631     -1.571187     -0.940155
   7.02688     -1.568195     -0.934082
   7.06745     -1.569180     -0.932209
   7.10802     -1.574229     -0.934743
   7.14859     -1.583184     -0.941623
   7.18917     -1.595650     -0.952510
   7.22974     -1.611024     -0.966807
   7.27031     -1.628574     -0.983741
   7.31088     -1.647495     -1.002433
   7.35145     -1.666992     -1.021999
   7.39202     -1.686331     -1.041615
   7.43259     -1.704850     -1.060541
   7.47316     -1.721980     -1.078138
   7.51373     -1.737236     -1.093867
   7.55430     -1.750225     -1.107293
   7.59487     -1.760638     -1.118075
   7.63544     -1.768241     -1.125957
   7.67602     -1.772870     -1.130760
   7.71659     -1.774427     -1.132376
   7.71659     -1.774427     -1.132376
   7.79773     -1.768245     -1.125959
   7.87887     -1.750229     -1.107295
   7.96001     -1.721983     -1.078140
   8.04115     -1.686334     -1.041617
   8.12229     -1.647499     -1.002435
   8.20344     -1.611028     -0.966810
   8.28458     -1.583188     -0.941625
   8.36572     -1.569183     -0.932211
   8.44686     -1.571191     -0.940157
   8.52800     -1.587753     -0.963096
   8.60914     -1.615095     -0.996555
   8.69029     -1.648843     -1.035815
   8.77143     -1.685018     -1.076777
   8.85257     -1.720376     -1.116173
   8.93371     -1.752399     -1.151491
   9.01485     -1.779152     -1.180802
   9.09599     -1.799223     -1.202700
   9.17714     -1.811643     -1.216216
   9.25828     -1.815842     -1.220780
 
# Band-Index    4
   9.25828     -0.010463      0.303442
   9.17714     -0.020453      0.201908
   9.09599     -0.099163     -0.065791
   9.01485     -0.524877     -0.418399
   8.93371     -0.968391     -0.776406
   8.85257     -1.366216     -1.082568
   8.77143     -1.679301     -1.076777
   8.69029     -1.648842     -1.035815
   8.60914     -1.615094     -0.996555
   8.52800     -1.587752     -0.963096
   8.44686     -1.571189     -0.940156
   8.36572     -1.569181     -0.932211
   8.28458     -1.583185     -0.941624
   8.20344     -1.611025     -0.966808
   8.12229     -1.647495     -1.002433
   8.04115     -1.686331     -1.041616
   7.96001     -1.721980     -1.078138
   7.87887     -1.750225     -1.107293
   7.79773     -1.768241     -1.125957
   7.71659     -1.774427     -1.132376
   7.71659     -1.774427     -1.132376
   7.67602     -1.772870     -1.130760
   7.63544     -1.768241     -1.125957
   7.59487     -1.760638     -1.118075
   7.55430     -1.750225     -1.107293
   7.51373     -1.737236     -1.093867
   7.47316     -1.721980     -1.078138
   7.43259     -1.704850     -1.060541
   7.39202     -1.686331     -1.041615
   7.35145     -1.666992     -1.021999
   7.31088     -1.647495     -1.002433
   7.27031     -1.628574     -0.983741
   7.22974     -1.611024     -0.966807
   7.18917     -1.595650     -0.952510
   7.14859     -1.583184     -0.941623
   7.10802     -1.574229     -0.934743
   7.06745     -1.569180     -0.932209
   7.02688     -1.568195     -0.934082
   6.98631     -1.571187     -0.940155
   6.94574     -1.577854     -0.950007
   6.94574     -1.577854     -0.950007
   6.86805     -1.565060     -0.935723
   6.79037     -1.533473     -0.901736
   6.71268     -1.484115     -0.848948
   6.63499     -1.418671     -0.778708
   6.55730     -1.340427     -0.693195
   6.47962     -1.261210     -0.599791
   6.40193     -1.246962     -0.599576
   6.32424     -1.309634     -0.680211
   6.24656     -1.383674     -0.762264
   6.16887     -1.456771     -0.840925
   6.09118     -1.525975     -0.914635
   6.01349     -1.589788     -0.982279
   5.93581     -1.647135     -1.042910
   5.85812     -1.344222     -1.026385
   5.78043     -0.997922     -0.733514
   5.70275     -0.646099     -0.409478
   5.62506     -0.329655     -0.090919
   5.54737     -0.098866      0.177086
   5.46968     -0.010463      0.303442
   5.46968     -0.010463      0.303442
   5.33718     -0.448382     -0.099445
   5.20468     -0.943996     -0.554886
   5.07217     -1.354530     -0.912623
   4.93967     -1.370529     -0.765266
   4.80717     -1.160781     -0.552850
   4.67466     -0.967865     -0.359535
   4.54216     -0.841040     -0.234169
   4.40965     -0.792072     -0.186920
   4.27715     -0.784321     -0.180555
   4.14465     -0.784321     -0.180555
   4.01214     -0.792072     -0.186920
   3.87964     -0.841040     -0.234169
   3.74714     -0.967864     -0.359534
   3.61463     -1.160779     -0.552849
   3.48213     -1.370527     -0.765264
   3.34962     -1.354524     -0.912614
   3.21712     -0.943990     -0.554875
   3.08462     -0.448378     -0.099430
   2.95211     -0.010464      0.303471
   2.95211     -0.010464      0.303471
   2.79674     -0.529834     -0.178934
   2.64136     -1.083659     -0.685387
   2.48599     -1.487458     -0.884141
   2.33062     -1.267202     -0.659680
   2.17524     -1.036842     -0.427517
   2.01987     -0.858129     -0.249688
   1.86449     -0.804500     -0.190958
   1.70912     -0.849586     -0.228420
   1.55374     -0.927964     -0.302342
   1.39837     -1.011578     -0.383202
   1.24300     -1.092046     -0.461004
   1.08762     -1.169627     -0.535152
   0.93225     -1.250212     -0.611348
   0.77687     -1.342687     -0.699252
   0.62150     -1.451907     -0.805533
   0.46612     -1.569646     -0.923169
   0.31075     -1.675597     -1.030912
   0.15537     -1.748516     -1.105710
   0.00000     -1.774427     -1.132376
 
# Band-Index    5
   0.00000     -0.725472     -0.095418
   0.15537     -0.751353     -0.123018
   0.31075     -0.823337     -0.199877
   0.46612     -0.918738     -0.301526
   0.62150     -0.965350     -0.346856
   0.77687     -0.826386     -0.197833
   0.93225     -0.480662      0.138950
   1.08762     -0.134150      0.545797
   1.24300     -0.014995      0.676809
   1.39837      0.041550      0.741857
   1.55374      0.020330      0.725594
   1.70912     -0.073436      0.634647
   1.86449     -0.202384      0.508582
   2.01987     -0.282386      0.427141
   2.17524     -0.263858      0.437791
   2.33062     -0.197211      0.499824
   2.48599     -0.124354      0.571656
   2.64136     -0.063645      0.632843
   2.79674     -0.024116      0.673072
   2.95211     -0.010464      0.687021
   2.95211     -0.010464      0.687021
   3.08462     -0.014990      0.682508
   3.21712     -0.028123      0.669477
   3.34962     -0.048115      0.649912
   3.48213     -0.070415      0.628942
   3.61463     -0.084423      0.618291
   3.74714     -0.069590      0.639691
   3.87964     -0.004972      0.712981
   4.01214      0.091013      0.816597
   4.14465      0.160106      0.890245
   4.27715      0.160106      0.890245
   4.40965      0.091012      0.816596
   4.54216     -0.004973      0.712980
   4.67466     -0.069590      0.639692
   4.80717     -0.084423      0.618292
   4.93967     -0.070414      0.628943
   5.07217     -0.048114      0.649913
   5.20468     -0.028123      0.669478
   5.33718     -0.014989      0.682510
   5.46968     -0.010455      0.687022
   5.46968     -0.010455      0.687022
   5.54737     -0.021879      0.675000
   5.62506     -0.055764      0.639327
   5.70275     -0.110904      0.581291
   5.78043     -0.185379      0.502928
   5.85812     -0.276683      0.406887
   5.93581     -0.381788      0.296349
   6.01349     -0.497347      0.174805
   6.09118     -0.619812      0.045903
   6.16887     -0.745392     -0.086563
   6.24656     -0.870067     -0.218846
   6.32424     -0.988563     -0.346979
   6.40193     -1.086443     -0.463962
   6.47962     -1.096337     -0.488497
   6.55730     -1.028683     -0.406707
   6.63499     -0.948183     -0.318417
   6.71268     -0.865684     -0.230024
   6.79037     -0.783828     -0.143065
   6.86805     -0.703927     -0.058524
   6.94574     -0.626851      0.022846
   6.94574     -0.626851      0.022846
   6.98631     -0.660849     -0.015119
   7.02688     -0.690432     -0.048494
   7.06745     -0.715155     -0.076718
   7.10802     -0.734781     -0.099433
   7.14859     -0.749329     -0.116560
   7.18917     -0.759090     -0.128338
   7.22974     -0.764574     -0.135272
   7.27031     -0.766439     -0.138068
   7.31088     -0.765411     -0.137531
   7.35145     -0.762227     -0.134491
   7.39202     -0.757581     -0.129739
   7.43259     -0.752095     -0.123981
   7.47316     -0.746303     -0.117824
   7.51373     -0.740665     -0.111790
   7.55430     -0.735567     -0.106310
   7.59487     -0.731307     -0.101720
   7.63544     -0.728112     -0.098271
   7.67602     -0.726139     -0.096139
   7.71659     -0.725472     -0.095418
   7.71659     -0.725472     -0.095418
   7.79773     -0.728112     -0.098271
   7.87887     -0.735567     -0.106310
   7.96001     -0.746303     -0.117824
   8.04115     -0.757580     -0.129738
   8.12229     -0.765410     -0.137530
   8.20344     -0.764574     -0.135271
   8.28458     -0.749329     -0.116560
   8.36572     -0.715154     -0.076717
   8.44686     -0.660849     -0.015118
   8.52800     -0.589048      0.064685
   8.60914     -0.504965      0.156746
   8.69029     -0.414683      0.254574
   8.77143     -0.323996      0.352168
   8.85257     -0.238057      0.444243
   8.93371     -0.161382      0.526168
   9.01485     -0.097681      0.594112
   9.09599     -0.049969      0.644952
   9.17714     -0.020445      0.676386
   9.25828     -0.010455      0.687022
 
# Band-Index    6
   9.25828      0.343957      0.687029
   9.17714      0.221880      0.676393
   9.09599     -0.049961      0.644959
   9.01485     -0.097673      0.594118
   8.93371     -0.161374      0.526174
   8.85257     -0.238050      0.444249
   8.77143     -0.323988      0.352173
   8.69029     -0.414676      0.254579
   8.60914     -0.504959      0.156751
   8.52800     -0.589043      0.064689
   8.44686     -0.660844     -0.015114
   8.36572     -0.715151     -0.076714
   8.28458     -0.749326     -0.116558
   8.20344     -0.764572     -0.135270
   8.12229     -0.765409     -0.137529
   8.04115     -0.757580     -0.129738
   7.96001     -0.746303     -0.117824
   7.87887     -0.735567     -0.106310
   7.79773     -0.728112     -0.098271
   7.71659     -0.725472     -0.095418
   7.71659     -0.725472     -0.095418
   7.67602     -0.726139     -0.096139
   7.63544     -0.728112     -0.098271
   7.59487     -0.731307     -0.101720
   7.55430     -0.735567     -0.106310
   7.51373     -0.740665     -0.111790
   7.47316     -0.746303     -0.117824
   7.43259     -0.752095     -0.123981
   7.39202     -0.757581     -0.129739
   7.35145     -0.762227     -0.134491
   7.31088     -0.765411     -0.137531
   7.27031     -0.766439     -0.138068
   7.22974     -0.764574     -0.135272
   7.18917     -0.759090     -0.128338
   7.14859     -0.749329     -0.116560
   7.10802     -0.734781     -0.099433
   7.06745     -0.715155     -0.076718
   7.02688     -0.690432     -0.048494
   6.98631     -0.660849     -0.015119
   6.94574     -0.626851      0.022846
   6.94574     -0.626851      0.022846
   6.86805     -0.565921      0.084907
   6.79037     -0.491078      0.160449
   6.71268     -0.408604      0.243372
   6.63499     -0.323075      0.329135
   6.55730     -0.237789      0.414386
   6.47962     -0.155012      0.496753
   6.40193     -0.076367      0.574467
   6.32424     -0.002918      0.646273
   6.24656      0.064636      0.711217
   6.16887      0.125842      0.768486
   6.09118      0.180431      0.817286
   6.01349      0.228232      0.856658
   5.93581      0.269052      0.885182
   5.85812      0.302673      0.900713
   5.78043      0.328655      0.899800
   5.70275      0.346095      0.877112
   5.62506      0.353433      0.825914
   5.54737      0.349779      0.745442
   5.46968      0.343957      0.687029
   5.46968      0.343957      0.687029
   5.33718      0.856877      1.170843
   5.20468      1.580456      1.874850
   5.07217      2.378789      2.656115
   4.93967      3.243648      3.504510
   4.80717      4.171338      4.415686
   4.67466      5.157305      5.384665
   4.54216      6.190909      6.400297
   4.40965      7.236759      7.426141
   4.27715      8.122135      8.288529
   4.14465      8.122144      8.288537
   4.01214      7.236774      7.426155
   3.87964      6.190924      6.400311
   3.74714      5.157321      5.384678
   3.61463      4.171353      4.415699
   3.48213      3.243663      3.504522
   3.34962      2.378804      2.656126
   3.21712      1.580471      1.874860
   3.08462      0.856894      1.170849
   2.95211      0.343988      0.687021
   2.95211      0.343988      0.687021
   2.79674      0.953989      1.270600
   2.64136      1.774163      2.078781
   2.48599      2.630204      2.928514
   2.33062      3.472667      3.766253
   2.17524      4.271264      4.554857
   2.01987      5.040793      5.303132
   1.86449      5.744400      5.972156
   1.70912      5.177143      5.408217
   1.55374      3.586361      3.886746
   1.39837      2.110245      2.502689
   1.24300      0.924666      1.420750
   1.08762      0.077773      0.655943
   0.93225     -0.287368      0.378613
   0.77687     -0.440369      0.211640
   0.62150     -0.564357      0.076443
   0.46612     -0.647646     -0.013555
   0.31075     -0.695431     -0.064271
   0.15537     -0.718658     -0.088427
   0.00000     -0.725472     -0.095418
 
# Band-Index    7
   0.00000     24.647643     24.507966
   0.15537     24.342266     24.229921
   0.31075     23.175180     23.153542
   0.46612     21.210737     21.257639
   0.62150     19.051969     19.131850
   0.77687     16.931530     17.034276
   0.93225     14.913825     15.035930
   1.08762     13.025935     13.165674
   1.24300     11.287196     11.443849
   1.39837      9.718214      9.892436
   1.55374      8.347867      8.542448
   1.70912      7.263288      7.483341
   1.86449      7.387772      7.591924
   2.01987      8.127947      8.318240
   2.17524      7.695941      7.924663
   2.33062      7.086177      7.358354
   2.48599      6.646421      6.958120
   2.64136      6.383717      6.724908
   2.79674      6.250551      6.609249
   2.95211      6.210366      6.574809
   2.95211      6.210366      6.574809
   3.08462      6.224358      6.585753
   3.21712      6.268868      6.621061
   3.34962      6.351578      6.688273
   3.48213      6.485659      6.800507
   3.61463      6.689222      6.976228
   3.74714      6.982216      7.236657
   3.87964      7.375664      7.595484
   4.01214      7.840551      8.027836
   4.14465      8.226502      8.390394
   4.27715      8.226515      8.390408
   4.40965      7.840578      8.027867
   4.54216      7.375697      7.595521
   4.67466      6.982251      7.236697
   4.80717      6.689257      6.976269
   4.93967      6.485695      6.800549
   5.07217      6.351614      6.688314
   5.20468      6.268904      6.621102
   5.33718      6.224393      6.585794
   5.46968      6.210401      6.574850
   5.46968      6.210401      6.574850
   5.54737      6.339410      6.693695
   5.62506      6.706687      7.035184
   5.70275      7.267202      7.563437
   5.78043      7.974628      8.238874
   5.85812      8.793065      9.028511
   5.93581      9.697614      9.908039
   6.01349     10.671344     10.860178
   6.09118     11.702617     11.872698
   6.16887     12.782560     12.936184
   6.24656     13.903226     14.042345
   6.32424     15.053054     15.179799
   6.40193     16.188161     16.307472
   6.47962     16.780658     16.897525
   6.55730     16.486489     16.597840
   6.63499     16.120669     16.233940
   6.71268     15.777356     15.893816
   6.79037     15.467889     15.587733
   6.86805     15.194897     15.317986
   6.94574     14.958860     15.084873
   6.94574     14.958860     15.084873
   6.98631     15.616138     15.734087
   7.02688     16.281586     16.391567
   7.06745     16.954324     17.056351
   7.10802     17.633309     17.727295
   7.14859     18.317349     18.403083
   7.18917     19.004878     19.081979
   7.22974     19.693753     19.761598
   7.27031     20.380916     20.438521
   7.31088     21.061871     21.107684
   7.35145     21.729513     21.761089
   7.39202     22.372498     22.386055
   7.43259     22.972576     22.962686
   7.47316     23.502735     23.463265
   7.51373     23.931977     23.859828
   7.55430     24.242616     24.141774
   7.59487     24.444807     24.324119
   7.63544     24.565289     24.433063
   7.67602     24.628175     24.490215
   7.71659     24.647644     24.507966
   7.71659     24.647643     24.507966
   7.79773     24.565289     24.433063
   7.87887     24.242615     24.141774
   7.96001     23.502737     23.463269
   8.04115     22.372504     22.386064
   8.12229     21.061881     21.107698
   8.20344     19.693765     19.761614
   8.28458     18.317361     18.403100
   8.36572     16.954338     17.056369
   8.44686     15.616152     15.734106
   8.52800     14.310640     14.444897
   8.60914     13.044051     13.195622
   8.69029     11.823372     11.993925
   8.77143     10.657044     10.849028
   8.85257      9.556830      9.773644
   8.93371      8.540837      8.786887
   9.01485      7.638397      7.918607
   9.09599      6.897704      7.215263
   9.17714      6.392913      6.743397
   9.25828      6.210401      6.574850
 
# Band-Index    8
   9.25828     23.074339     22.945446
   9.17714     23.096273     22.967671
   9.09599     23.161534     23.033798
   9.01485     23.268462     23.142134
   8.93371     23.414207     23.289785
   8.85257     23.594632     23.472537
   8.77143     23.804139     23.684687
   8.69029     24.035530     23.918898
   8.60914     24.280021     24.166221
   8.52800     24.527356     24.416194
   8.44686     24.766499     24.657611
   8.36572     24.987216     24.880206
   8.28458     25.182661     25.077378
   8.20344     25.353523     25.250864
   8.12229     25.514995     25.418454
   8.04115     25.712376     25.631792
   7.96001     26.060784     26.016696
   7.87887     26.741840     26.741677
   7.79773     27.671362     27.681707
   7.71659     28.212787     28.212849
   7.71659     28.212775     28.212849
   7.67602     28.055242     28.059653
   7.63544     27.671341     27.681679
   7.59487     27.201474     27.211382
   7.55430     26.741819     26.741663
   7.51373     26.352804     26.332873
   7.47316     26.060763     26.016659
   7.43259     25.856232     25.790857
   7.39202     25.712358     25.631773
   7.35145     25.604309     25.513885
   7.31088     25.514980     25.418437
   7.27031     25.433597     25.333286
   7.22974     25.353510     25.250850
   7.18917     25.270649     25.166461
   7.14859     25.182643     25.077365
   7.10802     25.088277     24.982112
   7.06745     24.987204     24.880192
   7.02688     24.879696     24.771795
   6.98631     24.766483     24.657601
   6.94574     24.648612     24.538642
   6.94574     24.648612     24.538642
   6.86805     24.011731     23.986522
   6.79037     22.762448     22.787392
   6.71268     21.454516     21.501851
   6.63499     20.155247     20.217910
   6.55730     18.890867     18.965061
   6.47962     17.761893     17.839042
   6.40193     17.586889     17.669537
   6.32424     18.024337     18.107309
   6.24656     18.548149     18.626527
   6.16887     19.115642     19.187429
   6.09118     19.716134     19.779470
   6.01349     20.341542     20.393875
   5.93581     20.980863     21.018020
   5.85812     21.614671     21.629225
   5.78043     22.203718     22.182930
   5.70275     22.672851     22.603640
   5.62506     22.945034     22.835980
   5.54737     23.050381     22.924964
   5.46968     23.074339     22.945446
   5.46968     23.074341     22.945446
   5.33718     22.589920     22.501220
   5.20468     21.203762     21.192988
   5.07217     19.509276     19.545632
   4.93967     17.795119     17.862732
   4.80717     16.135398     16.228138
   4.67466     14.555716     14.670949
   4.54216     13.074081     13.210876
   4.40965     11.728692     11.887695
   4.27715     10.693355     10.876398
   4.14465     10.693346     10.876389
   4.01214     11.728676     11.887679
   3.87964     13.074063     13.210858
   3.74714     14.555697     14.670929
   3.61463     16.135378     16.228117
   3.48213     17.795098     17.862710
   3.34962     19.509255     19.545609
   3.21712     21.203741     21.192965
   3.08462     22.589905     22.501204
   2.95211     23.074333     22.945438
   2.95211     23.074333     22.945439
   2.79674     22.363721     22.298223
   2.64136     20.224509     20.260442
   2.48599     17.706054     17.786937
   2.33062     15.219305     15.330952
   2.17524     12.930728     13.072604
   2.01987     11.259237     11.435439
   1.86449     11.308771     11.486917
   1.70912     12.553202     12.709612
   1.55374     14.191575     14.326391
   1.39837     16.038273     16.150968
   1.24300     18.014048     18.100483
   1.08762     19.992026     20.056066
   0.93225     20.908928     20.993964
   0.77687     22.006683     22.093291
   0.62150     23.252232     23.336437
   0.46612     24.485713     24.441437
   0.31075     25.442419     25.417185
   0.15537     26.960123     26.974794
   0.00000     28.212783     28.212845
 
# Band-Index    9
   0.00000     28.212795     28.212870
   0.15537     27.422412     27.454768
   0.31075     26.037450     26.098019
   0.46612     24.610914     24.687169
   0.62150     23.693420     23.657386
   0.77687     22.867129     22.841710
   0.93225     21.729015     21.728957
   1.08762     20.006995     20.073146
   1.24300     19.287234     19.363904
   1.39837     18.820895     18.894323
   1.55374     18.609695     18.682331
   1.70912     18.657227     18.731835
   1.86449     18.953757     19.032430
   2.01987     19.479452     19.563054
   2.17524     20.209422     20.297576
   2.33062     21.117142     21.208628
   2.48599     22.174601     22.267888
   2.64136     23.342180     23.435985
   2.79674     24.294339     24.353552
   2.95211     25.178949     25.274504
   2.95211     25.178949     25.274504
   3.08462     24.250369     24.346004
   3.21712     22.508232     22.606891
   3.34962     20.613053     20.716034
   3.48213     18.729126     18.836935
   3.61463     16.924561     17.037671
   3.74714     15.245574     15.364828
   3.87964     13.742533     13.869523
   4.01214     12.500711     12.637869
   4.14465     11.714309     11.862094
   4.27715     11.714296     11.862080
   4.40965     12.500680     12.637838
   4.54216     13.742496     13.869484
   4.67466     15.245533     15.364785
   4.80717     16.924517     17.037626
   4.93967     18.729079     18.836888
   5.07217     20.613003     20.715985
   5.20468     22.508178     22.606837
   5.33718     24.250306     24.345942
   5.46968     25.178874     25.274442
   5.46968     25.178872     25.274437
   5.54737     25.013452     25.107925
   5.62506     24.678106     24.761970
   5.70275     24.430215     24.481522
   5.78043     24.385733     24.396673
   5.85812     24.504423     24.488553
   5.93581     24.727968     24.698396
   6.01349     25.025061     24.989530
   6.09118     25.379544     25.342499
   6.16887     25.780602     25.744804
   6.24656     26.217331     26.184688
   6.32424     26.672762     26.644635
   6.40193     27.108655     27.085396
   6.47962     27.419078     27.396017
   6.55730     27.406361     27.370678
   6.63499     27.070524     27.024030
   6.71268     26.599402     26.552896
   6.79037     26.102998     26.068703
   6.86805     25.676653     25.686095
   6.94574     25.874823     25.966573
   6.94574     25.874823     25.966573
   6.98631     25.970610     26.059985
   7.02688     26.073488     26.160188
   7.06745     26.183349     26.267067
   7.10802     26.300195     26.380623
   7.14859     26.423919     26.500744
   7.18917     26.554337     26.627234
   7.22974     26.691171     26.759801
   7.27031     26.833984     26.897998
   7.31088     26.982170     27.041194
   7.35145     27.134852     27.188483
   7.39202     27.290784     27.338589
   7.43259     27.448193     27.489713
   7.47316     27.604538     27.639303
   7.51373     27.756261     27.783856
   7.55430     27.898313     27.918476
   7.59487     28.023850     28.036704
   7.63544     28.124209     28.130585
   7.67602     28.189849     28.191616
   7.71659     28.212795     28.212871
   7.71659     28.212807     28.212874
   7.79773     28.124195     28.130564
   7.87887     27.898298     27.918455
   7.96001     27.604522     27.639281
   8.04115     27.290768     27.338568
   8.12229     26.982153     27.041172
   8.20344     26.691154     26.759780
   8.28458     26.423903     26.500723
   8.36572     26.183332     26.267045
   8.44686     25.970590     26.059961
   8.52800     25.786030     25.879850
   8.60914     25.629264     25.726342
   8.69029     25.499511     25.598689
   8.77143     25.395575     25.495761
   8.85257     25.315775     25.415999
   8.93371     25.257827     25.357315
   9.01485     25.218750     25.317021
   9.09599     25.194922     25.291874
   9.17714     25.182599     25.278538
   9.25828     25.178875     25.274431
 
# Band-Index   10
   9.25828     25.178903     25.274454
   9.17714     25.182665     25.278558
   9.09599     25.194951     25.291886
   9.01485     25.218772     25.317035
   8.93371     25.257851     25.357324
   8.85257     25.315784     25.416001
   8.77143     25.395581     25.495764
   8.69029     25.499513     25.598696
   8.60914     25.629268     25.726353
   8.52800     25.786037     25.879865
   8.44686     25.970600     26.059979
   8.36572     26.183345     26.267065
   8.28458     26.423918     26.500744
   8.20344     26.691173     26.759804
   8.12229     26.982171     27.041198
   8.04115     27.290788     27.338594
   7.96001     27.604538     27.639323
   7.87887     27.898369     27.918480
   7.79773     28.124228     28.130590
   7.71659     28.212981     28.212882
   7.71659     28.212823     28.212907
   7.67602     28.189860     28.191635
   7.63544     28.125043     28.130607
   7.59487     28.023856     28.036705
   7.55430     27.898345     27.918507
   7.51373     27.756291     27.783888
   7.47316     27.604556     27.639308
   7.43259     27.448205     27.489715
   7.39202     27.290784     27.338590
   7.35145     27.134866     27.188486
   7.31088     26.982175     27.041197
   7.27031     26.833984     26.897999
   7.22974     26.691172     26.759803
   7.18917     26.554337     26.627235
   7.14859     26.423920     26.500750
   7.10802     26.300196     26.380624
   7.06745     26.183351     26.267067
   7.02688     26.073490     26.160188
   6.98631     25.970611     26.059986
   6.94574     25.874823     25.966573
   6.94574     25.874824     25.966574
   6.86805     26.825305     26.915727
   6.79037     27.805071     27.892705
   6.71268     28.811850     28.891274
   6.63499     29.423148     29.455194
   6.55730     28.965240     29.034178
   6.47962     28.538319     28.617768
   6.40193     28.136793     28.223839
   6.32424     27.756211     27.850307
   6.24656     27.394375     27.494139
   6.16887     27.048785     27.152848
   6.09118     26.718584     26.825433
   6.01349     26.405530     26.513260
   5.93581     26.113669     26.220689
   5.85812     25.849144     25.954253
   5.78043     25.619432     25.721959
   5.70275     25.431926     25.531783
   5.62506     25.293025     25.390608
   5.54737     25.207665     25.303750
   5.46968     25.178914     25.274525
   5.46968     25.178904     25.274450
   5.33718     24.787371     24.862798
   5.20468     24.750540     24.777867
   5.07217     25.135069     25.144789
   4.93967     25.759027     25.766609
   4.80717     26.565241     26.576152
   4.67466     27.524738     27.540538
   4.54216     28.612524     28.632087
   4.40965     29.795097     29.810380
   4.27715     30.906492     30.913090
   4.14465     31.045014     31.061340
   4.01214     29.791348     29.813885
   3.87964     28.612512     28.632129
   3.74714     27.524822     27.540503
   3.61463     26.565282     26.576200
   3.48213     25.759067     25.766649
   3.34962     25.135107     25.144836
   3.21712     24.750580     24.777915
   3.08462     24.787408     24.862846
   2.95211     25.178959     25.274505
   2.95211     25.178969     25.274508
   2.79674     24.513653     24.607799
   2.64136     23.745354     23.748015
   2.48599     23.427421     23.433137
   2.33062     23.140036     23.162024
   2.17524     22.874899     22.912756
   2.01987     22.645912     22.695831
   1.86449     22.470002     22.527789
   1.70912     22.364799     22.426957
   1.55374     22.349582     22.413781
   1.39837     22.447299     22.512823
   1.24300     22.693311     22.762094
   1.08762     23.169757     23.248569
   0.93225     24.111173     24.202216
   0.77687     25.679388     25.737034
   0.62150     27.126325     27.115849
   0.46612     27.705970     27.681340
   0.31075     27.896424     27.885854
   0.15537     28.089887     28.089032
   0.00000     28.212799     28.212919
