#K-Path(1/A) Energy-Level(eV)
# NKPTS & NBANDS: 150   8
# Band-Index    1
   0.00000     -7.724848
   0.02804     -7.835745
   0.05608     -7.946952
   0.08412     -8.057852
   0.11215     -8.167488
   0.14019     -8.275167
   0.16823     -8.380562
   0.19627     -8.483247
   0.22431     -8.582855
   0.25235     -8.679082
   0.28039     -8.771673
   0.30842     -8.860450
   0.33646     -8.945135
   0.36450     -9.025609
   0.39254     -9.101711
   0.42058     -9.173366
   0.44862     -9.240516
   0.47666     -9.302921
   0.50469     -9.360579
   0.53273     -9.413416
   0.56077     -9.461386
   0.58881     -9.504430
   0.61685     -9.542504
   0.64489     -9.575575
   0.67293     -9.603608
   0.70096     -9.626580
   0.72900     -9.644468
   0.75704     -9.657259
   0.78508     -9.664940
   0.81312     -9.666997
   0.81312     -9.666997
   0.84746     -9.683834
   0.88180     -9.730993
   0.91614     -9.804535
   0.95048     -9.898702
   0.98482    -10.007738
   1.01916    -10.126648
   1.05350    -10.251421
   1.08784    -10.378923
   1.12218    -10.506793
   1.15652    -10.633240
   1.19086    -10.756793
   1.22520    -10.876680
   1.25954    -10.991975
   1.29388    -11.102040
   1.32822    -11.206467
   1.36256    -11.304699
   1.39690    -11.396507
   1.43124    -11.481653
   1.46558    -11.559927
   1.49992    -11.631119
   1.53426    -11.695147
   1.56860    -11.751835
   1.60294    -11.801114
   1.63728    -11.843046
   1.67162    -11.877379
   1.70596    -11.904127
   1.74030    -11.923254
   1.77464    -11.934757
   1.80898    -11.938578
   1.80898    -11.938578
   1.84864    -11.933481
   1.88829    -11.918169
   1.92794    -11.892556
   1.96759    -11.856844
   2.00725    -11.810981
   2.04690    -11.754991
   2.08655    -11.688987
   2.12620    -11.612850
   2.16586    -11.526716
   2.20551    -11.430647
   2.24516    -11.324737
   2.28481    -11.209040
   2.32447    -11.083645
   2.36412    -10.948648
   2.40377    -10.804159
   2.44342    -10.650193
   2.48308    -10.487115
   2.52273    -10.314939
   2.56238    -10.133866
   2.60203     -9.943563
   2.64169     -9.745100
   2.68134     -9.538259
   2.72099     -9.323286
   2.76064     -9.100361
   2.80030     -8.869706
   2.83995     -8.631747
   2.87960     -8.386690
   2.91925     -8.134781
   2.95891     -7.876478
   2.95891     -7.876478
   2.97873     -7.876070
   2.99856     -7.874878
   3.01839     -7.872858
   3.03821     -7.870056
   3.05804     -7.866529
   3.07786     -7.862247
   3.09769     -7.857279
   3.11752     -7.851808
   3.13734     -7.845621
   3.15717     -7.838912
   3.17700     -7.831747
   3.19682     -7.824202
   3.21665     -7.816364
   3.23647     -7.808300
   3.25630     -7.800109
   3.27613     -7.791888
   3.29595     -7.783733
   3.31578     -7.775675
   3.33561     -7.767949
   3.35543     -7.760590
   3.37526     -7.753694
   3.39508     -7.747508
   3.41491     -7.741873
   3.43474     -7.736908
   3.45456     -7.732517
   3.47439     -7.729188
   3.49422     -7.726790
   3.51404     -7.725336
   3.53387     -7.724848
   3.53387     -7.724848
   3.55370     -7.725336
   3.57352     -7.726790
   3.59335     -7.729188
   3.61317     -7.732517
   3.63300     -7.736908
   3.65283     -7.741873
   3.67265     -7.747508
   3.69248     -7.753694
   3.71231     -7.760590
   3.73213     -7.767949
   3.75196     -7.775675
   3.77178     -7.783733
   3.79161     -7.791888
   3.81144     -7.800109
   3.83126     -7.808300
   3.85109     -7.816364
   3.87092     -7.824202
   3.89074     -7.831747
   3.91057     -7.838912
   3.93039     -7.845621
   3.95022     -7.851808
   3.97005     -7.857279
   3.98987     -7.862247
   4.00970     -7.866529
   4.02953     -7.870056
   4.04935     -7.872858
   4.06918     -7.874878
   4.08900     -7.876070
   4.10883     -7.876478
 
# Band-Index    2
   4.10883     -7.876477
   4.08900     -7.876069
   4.06918     -7.874877
   4.04935     -7.872857
   4.02953     -7.870055
   4.00970     -7.866528
   3.98987     -7.862246
   3.97005     -7.857278
   3.95022     -7.851807
   3.93039     -7.845620
   3.91057     -7.838910
   3.89074     -7.831746
   3.87092     -7.824200
   3.85109     -7.816363
   3.83126     -7.808298
   3.81144     -7.800108
   3.79161     -7.791886
   3.77178     -7.783732
   3.75196     -7.775673
   3.73213     -7.767947
   3.71231     -7.760588
   3.69248     -7.753692
   3.67265     -7.747506
   3.65283     -7.741871
   3.63300     -7.736906
   3.61317     -7.732515
   3.59335     -7.729186
   3.57352     -7.726788
   3.55370     -7.725334
   3.53387     -7.724846
   3.53387     -7.724846
   3.51404     -7.725334
   3.49422     -7.726788
   3.47439     -7.729186
   3.45456     -7.732515
   3.43474     -7.736906
   3.41491     -7.741871
   3.39508     -7.747506
   3.37526     -7.753692
   3.35543     -7.760588
   3.33561     -7.767947
   3.31578     -7.775673
   3.29595     -7.783732
   3.27613     -7.791886
   3.25630     -7.800108
   3.23647     -7.808298
   3.21665     -7.816363
   3.19682     -7.824200
   3.17700     -7.831746
   3.15717     -7.838910
   3.13734     -7.845620
   3.11752     -7.851807
   3.09769     -7.857278
   3.07786     -7.862246
   3.05804     -7.866528
   3.03821     -7.870055
   3.01839     -7.872857
   2.99856     -7.874877
   2.97873     -7.876069
   2.95891     -7.876477
   2.95891     -7.876477
   2.91925     -7.612078
   2.87960     -7.341996
   2.83995     -7.066559
   2.80030     -6.786196
   2.76064     -6.501448
   2.72099     -6.212531
   2.68134     -5.919184
   2.64169     -5.623475
   2.60203     -5.325032
   2.56238     -5.024299
   2.52273     -4.721633
   2.48308     -4.417650
   2.44342     -4.112688
   2.40377     -3.807240
   2.36412     -3.501661
   2.32447     -3.196490
   2.28481     -2.892196
   2.24516     -2.589656
   2.20551     -2.289598
   2.16586     -1.993154
   2.12620     -1.701287
   2.08655     -1.417344
   2.04690     -1.143225
   2.00725     -0.884638
   1.96759     -0.647047
   1.92794     -0.440562
   1.88829     -0.277907
   1.84864     -0.171372
   1.80898     -0.134179
   1.80898     -0.134179
   1.77464     -0.181007
   1.74030     -0.312594
   1.70596     -0.511352
   1.67162     -0.756618
   1.63728     -1.032716
   1.60294     -1.328477
   1.56860     -1.638293
   1.53426     -1.953907
   1.49992     -2.273244
   1.46558     -2.594443
   1.43124     -2.914143
   1.39690     -3.231558
   1.36256     -3.545458
   1.32822     -3.854765
   1.29388     -4.158506
   1.25954     -4.455810
   1.22520     -4.745729
   1.19086     -5.027293
   1.15652     -5.300666
   1.12218     -5.561978
   1.08784     -5.810988
   1.05350     -6.045739
   1.01916     -6.263723
   0.98482     -6.461719
   0.95048     -6.635650
   0.91614     -6.780324
   0.88180     -6.889982
   0.84746     -6.958825
   0.81312     -6.982142
   0.81312     -6.982142
   0.78508     -6.981106
   0.75704     -6.977332
   0.72900     -6.971135
   0.70096     -6.962642
   0.67293     -6.952037
   0.64489     -6.939638
   0.61685     -6.925620
   0.58881     -6.910429
   0.56077     -6.894591
   0.53273     -6.878683
   0.50469     -6.863530
   0.47666     -6.849800
   0.44862     -6.838567
   0.42058     -6.830886
   0.39254     -6.828272
   0.36450     -6.832094
   0.33646     -6.843598
   0.30842     -6.864216
   0.28039     -6.895155
   0.25235     -6.937060
   0.22431     -6.990389
   0.19627     -7.054774
   0.16823     -7.129579
   0.14019     -7.213665
   0.11215     -7.305874
   0.08412     -7.404371
   0.05608     -7.507960
   0.02804     -7.615217
   0.00000     -7.724846
 
# Band-Index    3
   0.00000     -3.862819
   0.02804     -3.940068
   0.05608     -4.007123
   0.08412     -4.062712
   0.11215     -4.105211
   0.14019     -4.132812
   0.16823     -4.144291
   0.19627     -4.138186
   0.22431     -4.113389
   0.25235     -4.069070
   0.28039     -4.005348
   0.30842     -3.922579
   0.33646     -3.821503
   0.36450     -3.703542
   0.39254     -3.570112
   0.42058     -3.423300
   0.44862     -3.264922
   0.47666     -3.096456
   0.50469     -2.919785
   0.53273     -2.736617
   0.56077     -2.549728
   0.58881     -2.360985
   0.61685     -2.172928
   0.64489     -1.989250
   0.67293     -1.813577
   0.70096     -1.652534
   0.72900     -1.512725
   0.75704     -1.402760
   0.78508     -1.331740
   0.81312     -1.306318
   0.81312     -1.306318
   0.84746     -1.304926
   0.88180     -1.298567
   0.91614     -1.287980
   0.95048     -1.273174
   0.98482     -1.254143
   1.01916     -1.230945
   1.05350     -1.203593
   1.08784     -1.172127
   1.12218     -1.136677
   1.15652     -1.097169
   1.19086     -1.053621
   1.22520     -1.006467
   1.25954     -0.955722
   1.29388     -0.901594
   1.32822     -0.844320
   1.36256     -0.784304
   1.39690     -0.721917
   1.43124     -0.657686
   1.46558     -0.592255
   1.49992     -0.525814
   1.53426     -0.460558
   1.56860     -0.396010
   1.60294     -0.335522
   1.63728     -0.280658
   1.67162     -0.231473
   1.70596     -0.190602
   1.74030     -0.159829
   1.77464     -0.140671
   1.80898     -0.134164
   1.80898     -0.134164
   1.84864     -0.155556
   1.88829     -0.217027
   1.92794     -0.310992
   1.96759     -0.430874
   2.00725     -0.567971
   2.04690     -0.715814
   2.08655     -0.871380
   2.12620     -1.027444
   2.16586     -1.183297
   2.20551     -1.336727
   2.24516     -1.486400
   2.28481     -1.631191
   2.32447     -1.770425
   2.36412     -1.903034
   2.40377     -2.028683
   2.44342     -2.146811
   2.48308     -2.257331
   2.52273     -2.359815
   2.56238     -2.454912
   2.60203     -2.540541
   2.64169     -2.617602
   2.68134     -2.685885
   2.72099     -2.745457
   2.76064     -2.795841
   2.80030     -2.836999
   2.83995     -2.869208
   2.87960     -2.892254
   2.91925     -2.905667
   2.95891     -2.910277
   2.95891     -2.910277
   2.97873     -2.914033
   2.99856     -2.925457
   3.01839     -2.943730
   3.03821     -2.968614
   3.05804     -2.999770
   3.07786     -3.035937
   3.09769     -3.076525
   3.11752     -3.121153
   3.13734     -3.168265
   3.15717     -3.217464
   3.17700     -3.268021
   3.19682     -3.319264
   3.21665     -3.370658
   3.23647     -3.421443
   3.25630     -3.471194
   3.27613     -3.519437
   3.29595     -3.565745
   3.31578     -3.609706
   3.33561     -3.651013
   3.35543     -3.689330
   3.37526     -3.724373
   3.39508     -3.756110
   3.41491     -3.783991
   3.43474     -3.807806
   3.45456     -3.827338
   3.47439     -3.842751
   3.49422     -3.853874
   3.51404     -3.860579
   3.53387     -3.862819
   3.53387     -3.862819
   3.55370     -3.860579
   3.57352     -3.853874
   3.59335     -3.842751
   3.61317     -3.827338
   3.63300     -3.807806
   3.65283     -3.783991
   3.67265     -3.756110
   3.69248     -3.724373
   3.71231     -3.689330
   3.73213     -3.651013
   3.75196     -3.609706
   3.77178     -3.565745
   3.79161     -3.519437
   3.81144     -3.471194
   3.83126     -3.421443
   3.85109     -3.370658
   3.87092     -3.319264
   3.89074     -3.268021
   3.91057     -3.217464
   3.93039     -3.168265
   3.95022     -3.121153
   3.97005     -3.076525
   3.98987     -3.035937
   4.00970     -2.999770
   4.02953     -2.968614
   4.04935     -2.943730
   4.06918     -2.925457
   4.08900     -2.914033
   4.10883     -2.910277
 
# Band-Index    4
   4.10883     -2.910269
   4.08900     -2.914025
   4.06918     -2.925449
   4.04935     -2.943722
   4.02953     -2.968606
   4.00970     -2.999762
   3.98987     -3.035929
   3.97005     -3.076517
   3.95022     -3.121143
   3.93039     -3.168256
   3.91057     -3.217455
   3.89074     -3.268013
   3.87092     -3.319256
   3.85109     -3.370650
   3.83126     -3.421435
   3.81144     -3.471185
   3.79161     -3.519429
   3.77178     -3.565736
   3.75196     -3.609698
   3.73213     -3.651004
   3.71231     -3.689322
   3.69248     -3.724364
   3.67265     -3.756101
   3.65283     -3.783982
   3.63300     -3.807797
   3.61317     -3.827330
   3.59335     -3.842742
   3.57352     -3.853866
   3.55370     -3.860570
   3.53387     -3.862810
   3.53387     -3.862810
   3.51404     -3.860570
   3.49422     -3.853866
   3.47439     -3.842742
   3.45456     -3.827330
   3.43474     -3.807797
   3.41491     -3.783982
   3.39508     -3.756101
   3.37526     -3.724364
   3.35543     -3.689322
   3.33561     -3.651004
   3.31578     -3.609698
   3.29595     -3.565736
   3.27613     -3.519429
   3.25630     -3.471185
   3.23647     -3.421435
   3.21665     -3.370650
   3.19682     -3.319256
   3.17700     -3.268013
   3.15717     -3.217455
   3.13734     -3.168256
   3.11752     -3.121143
   3.09769     -3.076517
   3.07786     -3.035929
   3.05804     -2.999762
   3.03821     -2.968606
   3.01839     -2.943722
   2.99856     -2.925449
   2.97873     -2.914025
   2.95891     -2.910269
   2.95891     -2.910269
   2.91925     -2.905659
   2.87960     -2.892245
   2.83995     -2.869200
   2.80030     -2.836990
   2.76064     -2.795832
   2.72099     -2.745448
   2.68134     -2.685876
   2.64169     -2.617593
   2.60203     -2.540533
   2.56238     -2.454903
   2.52273     -2.359806
   2.48308     -2.257322
   2.44342     -2.146802
   2.40377     -2.028674
   2.36412     -1.903025
   2.32447     -1.770416
   2.28481     -1.631182
   2.24516     -1.486391
   2.20551     -1.336718
   2.16586     -1.183287
   2.12620     -1.027435
   2.08655     -0.871370
   2.04690     -0.715805
   2.00725     -0.567962
   1.96759     -0.430864
   1.92794     -0.310983
   1.88829     -0.217017
   1.84864     -0.155546
   1.80898     -0.134164
   1.80898     -0.134164
   1.77464     -0.140671
   1.74030     -0.159829
   1.70596     -0.190602
   1.67162     -0.231473
   1.63728     -0.280658
   1.60294     -0.335522
   1.56860     -0.396010
   1.53426     -0.460558
   1.49992     -0.525814
   1.46558     -0.592255
   1.43124     -0.657686
   1.39690     -0.721917
   1.36256     -0.784304
   1.32822     -0.844320
   1.29388     -0.901594
   1.25954     -0.955722
   1.22520     -1.006467
   1.19086     -1.053621
   1.15652     -1.097169
   1.12218     -1.136677
   1.08784     -1.172127
   1.05350     -1.203593
   1.01916     -1.230945
   0.98482     -1.254143
   0.95048     -1.273174
   0.91614     -1.287980
   0.88180     -1.298567
   0.84746     -1.304926
   0.81312     -1.306318
   0.81312     -1.306318
   0.78508     -1.311738
   0.75704     -1.325763
   0.72900     -1.349110
   0.70096     -1.381747
   0.67293     -1.423609
   0.64489     -1.474738
   0.61685     -1.534645
   0.58881     -1.603206
   0.56077     -1.680058
   0.53273     -1.764737
   0.50469     -1.856946
   0.47666     -1.955916
   0.44862     -2.060392
   0.42058     -2.169915
   0.39254     -2.283820
   0.36450     -2.401957
   0.33646     -2.521899
   0.30842     -2.643593
   0.28039     -2.766181
   0.25235     -2.888881
   0.22431     -3.010925
   0.19627     -3.131393
   0.16823     -3.249544
   0.14019     -3.364567
   0.11215     -3.476005
   0.08412     -3.582293
   0.05608     -3.682752
   0.02804     -3.776652
   0.00000     -3.862810
 
# Band-Index    5
   0.00000      4.207282
   0.02804      4.112792
   0.05608      4.006106
   0.08412      3.896266
   0.11215      3.790084
   0.14019      3.689018
   0.16823      3.593404
   0.19627      3.504422
   0.22431      3.422560
   0.25235      3.347236
   0.28039      3.280785
   0.30842      3.222566
   0.33646      3.172825
   0.36450      3.091107
   0.39254      2.992426
   0.42058      2.892711
   0.44862      2.792655
   0.47666      2.691175
   0.50469      2.586619
   0.53273      2.477576
   0.56077      2.361449
   0.58881      2.237304
   0.61685      2.104763
   0.64489      1.965589
   0.67293      1.823976
   0.70096      1.686348
   0.72900      1.561808
   0.75704      1.460993
   0.78508      1.394728
   0.81312      1.371837
   0.81312      1.371837
   0.84746      1.373974
   0.88180      1.381381
   0.91614      1.393714
   0.95048      1.410947
   0.98482      1.434408
   1.01916      1.461250
   1.05350      1.492840
   1.08784      1.529091
   1.12218      1.569867
   1.15652      1.615084
   1.19086      1.664582
   1.22520      1.718058
   1.25954      1.775292
   1.29388      1.835957
   1.32822      1.898082
   1.36256      1.963428
   1.39690      2.031429
   1.43124      2.100596
   1.46558      2.170013
   1.49992      2.239021
   1.53426      2.305319
   1.56860      2.367670
   1.60294      2.424394
   1.63728      2.471555
   1.67162      2.505725
   1.70596      2.521722
   1.74030      2.515780
   1.77464      2.493193
   1.80898      2.483595
   1.80898      2.483595
   1.84864      2.470910
   1.88829      2.433561
   1.92794      2.373768
   1.96759      2.294278
   2.00725      2.198802
   2.04690      2.091067
   2.08655      1.973941
   2.12620      1.851971
   2.16586      1.727294
   2.20551      1.602315
   2.24516      1.479061
   2.28481      1.359308
   2.32447      1.244347
   2.36412      1.135460
   2.40377      1.033665
   2.44342      0.940544
   2.48308      0.855405
   2.52273      0.779628
   2.56238      0.713782
   2.60203      0.659596
   2.64169      0.615121
   2.68134      0.581963
   2.72099      0.560381
   2.76064      0.550964
   2.80030      0.554770
   2.83995      0.570451
   2.87960      0.599165
   2.91925      0.642188
   2.95891      0.697790
   2.95891      0.697790
   2.97873      0.704797
   2.99856      0.725330
   3.01839      0.759876
   3.03821      0.807551
   3.05804      0.867442
   3.07786      0.939430
   3.09769      1.022504
   3.11752      1.114463
   3.13734      1.217303
   3.15717      1.328906
   3.17700      1.448579
   3.19682      1.575680
   3.21665      1.709323
   3.23647      1.849567
   3.25630      1.995631
   3.27613      2.147067
   3.29595      2.303459
   3.31578      2.464436
   3.33561      2.629569
   3.35543      2.798491
   3.37526      2.970775
   3.39508      3.144953
   3.41491      3.321892
   3.43474      3.500433
   3.45456      3.678911
   3.47439      3.853891
   3.49422      4.017324
   3.51404      4.150303
   3.53387      4.207282
   3.53387      4.207282
   3.55370      4.150303
   3.57352      4.017324
   3.59335      3.853891
   3.61317      3.678911
   3.63300      3.500433
   3.65283      3.321892
   3.67265      3.144953
   3.69248      2.970775
   3.71231      2.798491
   3.73213      2.629569
   3.75196      2.464436
   3.77178      2.303459
   3.79161      2.147067
   3.81144      1.995631
   3.83126      1.849567
   3.85109      1.709323
   3.87092      1.575680
   3.89074      1.448579
   3.91057      1.328906
   3.93039      1.217303
   3.95022      1.114463
   3.97005      1.022504
   3.98987      0.939430
   4.00970      0.867442
   4.02953      0.807551
   4.04935      0.759876
   4.06918      0.725330
   4.08900      0.704797
   4.10883      0.697790
 
# Band-Index    6
   4.10883      0.697809
   4.08900      0.704817
   4.06918      0.725350
   4.04935      0.759895
   4.02953      0.807571
   4.00970      0.867462
   3.98987      0.939450
   3.97005      1.022524
   3.95022      1.114488
   3.93039      1.217329
   3.91057      1.328931
   3.89074      1.448605
   3.87092      1.575705
   3.85109      1.709349
   3.83126      1.849593
   3.81144      1.995657
   3.79161      2.147093
   3.77178      2.303485
   3.75196      2.464463
   3.73213      2.629596
   3.71231      2.798518
   3.69248      2.970803
   3.67265      3.144986
   3.65283      3.321927
   3.63300      3.500469
   3.61317      3.678947
   3.59335      3.853928
   3.57352      4.017363
   3.55370      4.150343
   3.53387      4.207322
   3.53387      4.207322
   3.51404      4.150343
   3.49422      4.017363
   3.47439      3.853928
   3.45456      3.678947
   3.43474      3.500469
   3.41491      3.321927
   3.39508      3.144986
   3.37526      2.970803
   3.35543      2.798518
   3.33561      2.629596
   3.31578      2.464463
   3.29595      2.303485
   3.27613      2.147093
   3.25630      1.995657
   3.23647      1.849593
   3.21665      1.709349
   3.19682      1.575705
   3.17700      1.448605
   3.15717      1.328931
   3.13734      1.217329
   3.11752      1.114488
   3.09769      1.022524
   3.07786      0.939450
   3.05804      0.867462
   3.03821      0.807571
   3.01839      0.759895
   2.99856      0.725350
   2.97873      0.704817
   2.95891      0.697809
   2.95891      0.697809
   2.91925      0.766845
   2.87960      0.849546
   2.83995      0.947354
   2.80030      1.059657
   2.76064      1.186347
   2.72099      1.328018
   2.68134      1.485927
   2.64169      1.657029
   2.60203      1.842548
   2.56238      2.042075
   2.52273      2.255496
   2.48308      2.480665
   2.44342      2.716634
   2.40377      2.960660
   2.36412      3.210106
   2.32447      3.459005
   2.28481      3.698532
   2.24516      3.912603
   2.20551      4.081340
   2.16586      4.034250
   2.12620      3.775040
   2.08655      3.526025
   2.04690      3.292417
   2.00725      3.075832
   1.96759      2.882480
   1.92794      2.718567
   1.88829      2.591709
   1.84864      2.511297
   1.80898      2.483611
   1.80898      2.483611
   1.77464      2.493193
   1.74030      2.521454
   1.70596      2.567010
   1.67162      2.627737
   1.63728      2.700980
   1.60294      2.784239
   1.56860      2.873147
   1.53426      2.964861
   1.49992      3.056524
   1.46558      3.143434
   1.43124      3.224427
   1.39690      3.295702
   1.36256      3.355065
   1.32822      3.401145
   1.29388      3.432544
   1.25954      3.451650
   1.22520      3.458954
   1.19086      3.456335
   1.15652      3.445891
   1.12218      3.429913
   1.08784      3.411906
   1.05350      3.390699
   1.01916      3.369397
   0.98482      3.349323
   0.95048      3.331541
   0.91614      3.316907
   0.88180      3.306040
   0.84746      3.299376
   0.81312      3.297954
   0.81312      3.297954
   0.78508      3.292734
   0.75704      3.279710
   0.72900      3.259226
   0.70096      3.232979
   0.67293      3.203034
   0.64489      3.171389
   0.61685      3.140656
   0.58881      3.113952
   0.56077      3.090250
   0.53273      3.072420
   0.50469      3.059684
   0.47666      3.056705
   0.44862      3.062144
   0.42058      3.077410
   0.39254      3.100537
   0.36450      3.131810
   0.33646      3.193066
   0.30842      3.297079
   0.28039      3.403372
   0.25235      3.512376
   0.22431      3.623968
   0.19627      3.737845
   0.16823      3.853345
   0.14019      3.969666
   0.11215      4.082114
   0.08412      4.183678
   0.05608      4.255984
   0.02804      4.265579
   0.00000      4.207322
 
# Band-Index    7
   0.00000      4.854963
   0.02804      4.790866
   0.05608      4.805167
   0.08412      4.891254
   0.11215      5.017346
   0.14019      5.166548
   0.16823      5.327810
   0.19627      5.498882
   0.22431      5.677979
   0.25235      5.864830
   0.28039      6.057151
   0.30842      6.254126
   0.33646      6.440048
   0.36450      6.252555
   0.39254      5.932742
   0.42058      5.617131
   0.44862      5.309358
   0.47666      5.016486
   0.50469      4.739322
   0.53273      4.480416
   0.56077      4.243186
   0.58881      4.030801
   0.61685      3.845465
   0.64489      3.689313
   0.67293      3.563786
   0.70096      3.463678
   0.72900      3.388919
   0.75704      3.337345
   0.78508      3.307154
   0.81312      3.297954
   0.81312      3.297954
   0.84746      3.299376
   0.88180      3.306040
   0.91614      3.316907
   0.95048      3.331541
   0.98482      3.349323
   1.01916      3.369397
   1.05350      3.390699
   1.08784      3.411906
   1.12218      3.429913
   1.15652      3.445891
   1.19086      3.456335
   1.22520      3.458954
   1.25954      3.451650
   1.29388      3.432544
   1.32822      3.401145
   1.36256      3.355065
   1.39690      3.295702
   1.43124      3.224427
   1.46558      3.143434
   1.49992      3.056524
   1.53426      2.964861
   1.56860      2.873147
   1.60294      2.784239
   1.63728      2.700980
   1.67162      2.627737
   1.70596      2.567010
   1.74030      2.521454
   1.77464      2.495178
   1.80898      2.483611
   1.80898      2.483611
   1.84864      2.511307
   1.88829      2.591719
   1.92794      2.718577
   1.96759      2.882490
   2.00725      3.075843
   2.04690      3.292427
   2.08655      3.526036
   2.12620      3.775051
   2.16586      4.034261
   2.20551      4.304147
   2.24516      4.581866
   2.28481      4.867597
   2.32447      5.156427
   2.36412      5.451119
   2.40377      5.750044
   2.44342      6.056897
   2.48308      6.362919
   2.52273      6.672008
   2.56238      6.983476
   2.60203      7.298335
   2.64169      7.615035
   2.68134      7.933574
   2.72099      8.251812
   2.76064      8.571402
   2.80030      8.895928
   2.83995      9.205430
   2.87960      9.495673
   2.91925      9.739475
   2.95891      9.842286
   2.95891      9.842309
   2.97873      9.831573
   2.99856      9.796265
   3.01839      9.737696
   3.03821      9.651683
   3.05804      9.536944
   3.07786      9.395501
   3.09769      9.232226
   3.11752      9.048533
   3.13734      8.854620
   3.15717      8.651463
   3.17700      8.441764
   3.19682      8.227530
   3.21665      8.009232
   3.23647      7.789979
   3.25630      7.569644
   3.27613      7.348889
   3.29595      7.128260
   3.31578      6.909433
   3.33561      6.690358
   3.35543      6.472693
   3.37526      6.256861
   3.39508      6.042728
   3.41491      5.830044
   3.43474      5.623421
   3.45456      5.423172
   3.47439      5.231322
   3.49422      5.055124
   3.51404      4.914491
   3.53387      4.854963
   3.53387      4.854963
   3.55370      4.914491
   3.57352      5.055124
   3.59335      5.231322
   3.61317      5.423172
   3.63300      5.623421
   3.65283      5.830044
   3.67265      6.042728
   3.69248      6.256861
   3.71231      6.472693
   3.73213      6.690358
   3.75196      6.909434
   3.77178      7.128261
   3.79161      7.348887
   3.81144      7.569648
   3.83126      7.789979
   3.85109      8.009237
   3.87092      8.227509
   3.89074      8.441744
   3.91057      8.651442
   3.93039      8.854615
   3.95022      9.048539
   3.97005      9.232240
   3.98987      9.395497
   4.00970      9.536841
   4.02953      9.651882
   4.04935      9.737828
   4.06918      9.796345
   4.08900      9.831555
   4.10883      9.842409
 
# Band-Index    8
   4.10883      9.842732
   4.08900      9.832038
   4.06918      9.798186
   4.04935      9.738092
   4.02953      9.652316
   4.00970      9.538091
   3.98987      9.395609
   3.97005      9.232313
   3.95022      9.048591
   3.93039      8.854674
   3.91057      8.651493
   3.89074      8.441795
   3.87092      8.227560
   3.85109      8.009295
   3.83126      7.790032
   3.81144      7.569702
   3.79161      7.348937
   3.77178      7.128309
   3.75196      6.909477
   3.73213      6.690398
   3.71231      6.472733
   3.69248      6.256899
   3.67265      6.042766
   3.65283      5.830083
   3.63300      5.623459
   3.61317      5.423204
   3.59335      5.231354
   3.57352      5.055153
   3.55370      4.914514
   3.53387      4.854980
   3.53387      4.854980
   3.51404      4.914514
   3.49422      5.055153
   3.47439      5.231354
   3.45456      5.423204
   3.43474      5.623459
   3.41491      5.830083
   3.39508      6.042766
   3.37526      6.256899
   3.35543      6.472733
   3.33561      6.690398
   3.31578      6.909474
   3.29595      7.128308
   3.27613      7.348937
   3.25630      7.569693
   3.23647      7.790031
   3.21665      8.009290
   3.19682      8.227592
   3.17700      8.441805
   3.15717      8.651498
   3.13734      8.854785
   3.11752      9.048637
   3.09769      9.232328
   3.07786      9.395688
   3.05804      9.537103
   3.03821      9.652195
   3.01839      9.738700
   2.99856      9.796399
   2.97873      9.832468
   2.95891      9.842900
   2.95891      9.842535
   2.91925      9.739501
   2.87960      9.495683
   2.83995      9.205443
   2.80030      8.895940
   2.76064      8.571417
   2.72099      8.251830
   2.68134      7.933598
   2.64169      7.615102
   2.60203      7.298349
   2.56238      6.983489
   2.52273      6.672022
   2.48308      6.362932
   2.44342      6.056910
   2.40377      5.750057
   2.36412      5.451131
   2.32447      5.156439
   2.28481      4.867609
   2.24516      4.581877
   2.20551      4.304158
   2.16586      4.173324
   2.12620      4.166290
   2.08655      4.063142
   2.04690      3.894381
   2.00725      3.693104
   1.96759      3.486039
   1.92794      3.294470
   1.88829      3.137445
   1.84864      3.033705
   1.80898      2.997235
   1.80898      2.997235
   1.77464      3.025731
   1.74030      3.117790
   1.70596      3.278176
   1.67162      3.495738
   1.63728      3.752498
   1.60294      4.034153
   1.56860      4.330547
   1.53426      4.635594
   1.49992      4.945359
   1.46558      5.256703
   1.43124      5.568063
   1.39690      5.877543
   1.36256      6.183474
   1.32822      6.485350
   1.29388      6.779380
   1.25954      7.056029
   1.22520      7.312218
   1.19086      7.519920
   1.15652      7.671063
   1.12218      7.755133
   1.08784      7.785010
   1.05350      7.782204
   1.01916      7.763219
   0.98482      7.738489
   0.95048      7.713465
   0.91614      7.691805
   0.88180      7.675273
   0.84746      7.664973
   0.81312      7.661898
   0.81312      7.661898
   0.78508      7.672566
   0.75704      7.704866
   0.72900      7.755348
   0.70096      7.818763
   0.67293      7.887257
   0.64489      7.949992
   0.61685      7.993613
   0.58881      8.003931
   0.56077      7.985009
   0.53273      7.902200
   0.50469      7.800733
   0.47666      7.592268
   0.44862      7.352416
   0.42058      7.128506
   0.39254      6.904106
   0.36450      6.686674
   0.33646      6.623182
   0.30842      6.606416
   0.28039      6.425976
   0.25235      6.247045
   0.22431      6.070502
   0.19627      5.896925
   0.16823      5.726925
   0.14019      5.561204
   0.11215      5.400268
   0.08412      5.245665
   0.05608      5.099777
   0.02804      4.965934
   0.00000      4.854980
