#K-Path(1/A) Energy-Level(eV)
# NKPTS & NBANDS: 300  12
# Band-Index    1
   0.00000    -19.618571
   0.01720    -19.617752
   0.03440    -19.615317
   0.05160    -19.611262
   0.06880    -19.605577
   0.08600    -19.598272
   0.10320    -19.589339
   0.12040    -19.578785
   0.13760    -19.566608
   0.15480    -19.552812
   0.17200    -19.537394
   0.18920    -19.520360
   0.20640    -19.501711
   0.22360    -19.481435
   0.24080    -19.459540
   0.25800    -19.436029
   0.27520    -19.410907
   0.29240    -19.384173
   0.30960    -19.355824
   0.32680    -19.325874
   0.34400    -19.294312
   0.36120    -19.261146
   0.37840    -19.226378
   0.39560    -19.189999
   0.41280    -19.152014
   0.43000    -19.112431
   0.44720    -19.071251
   0.46440    -19.028478
   0.48160    -18.984113
   0.49880    -18.938158
   0.51600    -18.890619
   0.53320    -18.841513
   0.55040    -18.790818
   0.56760    -18.738542
   0.58480    -18.684706
   0.60200    -18.629293
   0.61920    -18.572305
   0.63640    -18.513765
   0.65360    -18.453660
   0.67080    -18.392007
   0.68800    -18.328803
   0.70520    -18.264067
   0.72240    -18.197783
   0.73960    -18.129966
   0.75680    -18.060622
   0.77400    -17.989757
   0.79120    -17.917374
   0.80840    -17.843489
   0.82560    -17.768097
   0.84280    -17.691222
   0.86000    -17.612850
   0.87720    -17.533010
   0.89440    -17.451691
   0.91160    -17.368918
   0.92880    -17.284689
   0.94600    -17.199016
   0.96320    -17.111917
   0.98040    -17.023390
   0.99760    -16.933463
   1.01480    -16.842142
   1.03200    -16.749516
   1.04920    -16.655501
   1.06640    -16.560081
   1.08360    -16.463322
   1.10080    -16.365264
   1.11800    -16.265909
   1.13520    -16.165274
   1.15240    -16.063400
   1.16960    -15.960306
   1.18680    -15.855979
   1.20400    -15.750440
   1.22120    -15.643780
   1.23840    -15.535990
   1.25560    -15.427112
   1.27280    -15.317170
   1.29000    -15.206253
   1.30720    -15.094364
   1.32440    -14.981644
   1.34160    -14.868044
   1.35880    -14.753640
   1.37601    -14.638524
   1.39321    -14.522796
   1.41041    -14.406582
   1.42761    -14.289921
   1.44481    -14.173002
   1.46201    -14.055939
   1.47921    -13.938940
   1.49641    -13.822109
   1.51361    -13.705807
   1.53081    -13.590214
   1.54801    -13.475696
   1.56521    -13.362618
   1.58241    -13.251447
   1.59961    -13.142846
   1.61681    -13.037378
   1.63401    -12.936017
   1.65121    -12.839820
   1.66841    -12.750592
   1.68561    -12.673559
   1.70281    -12.648965
   1.70281    -12.648965
   1.72556    -12.663874
   1.74831    -12.755436
   1.77107    -12.851944
   1.79382    -12.950718
   1.81657    -13.051126
   1.83933    -13.152716
   1.86208    -13.255108
   1.88483    -13.358005
   1.90758    -13.461088
   1.93034    -13.564056
   1.95309    -13.666653
   1.97584    -13.768614
   1.99860    -13.869825
   2.02135    -13.970024
   2.04410    -14.069092
   2.06686    -14.166855
   2.08961    -14.263155
   2.11236    -14.357921
   2.13512    -14.451021
   2.15787    -14.542359
   2.18062    -14.631839
   2.20338    -14.719409
   2.22613    -14.804986
   2.24888    -14.888511
   2.27164    -14.969911
   2.29439    -15.049189
   2.31714    -15.126263
   2.33989    -15.201095
   2.36265    -15.273617
   2.38540    -15.343799
   2.40815    -15.411667
   2.43091    -15.477132
   2.45366    -15.540195
   2.47641    -15.600818
   2.49917    -15.658984
   2.52192    -15.714654
   2.54467    -15.767812
   2.56743    -15.818441
   2.59018    -15.866537
   2.61293    -15.912043
   2.63569    -15.954998
   2.65844    -15.995345
   2.68119    -16.033113
   2.70395    -16.068242
   2.72670    -16.100740
   2.74945    -16.130629
   2.77220    -16.157850
   2.79496    -16.182401
   2.81771    -16.204307
   2.84046    -16.223554
   2.86322    -16.240122
   2.88597    -16.254008
   2.90872    -16.265215
   2.93148    -16.273705
   2.95423    -16.279496
   2.97698    -16.282570
   2.99974    -16.282986
   3.02249    -16.280737
   3.04524    -16.275757
   3.06800    -16.268074
   3.09075    -16.257684
   3.11350    -16.244598
   3.13626    -16.228818
   3.15901    -16.210328
   3.18176    -16.189166
   3.20452    -16.165324
   3.22727    -16.138809
   3.25002    -16.109588
   3.27277    -16.077738
   3.29553    -16.043233
   3.31828    -16.006064
   3.34103    -15.966290
   3.36379    -15.923899
   3.38654    -15.878972
   3.40929    -15.831405
   3.43205    -15.781309
   3.45480    -15.728687
   3.47755    -15.673585
   3.50031    -15.616054
   3.52306    -15.556099
   3.54581    -15.493791
   3.56857    -15.429182
   3.59132    -15.362377
   3.61407    -15.293441
   3.63683    -15.222494
   3.65958    -15.149665
   3.68233    -15.075145
   3.70508    -14.999156
   3.72784    -14.921972
   3.75059    -14.844050
   3.77334    -14.765876
   3.79610    -14.688165
   3.81885    -14.611919
   3.84160    -14.538576
   3.86436    -14.470132
   3.88711    -14.409440
   3.90986    -14.360357
   3.93262    -14.327670
   3.95537    -14.316061
   3.95537    -14.316061
   3.97026    -14.328383
   3.98516    -14.363206
   4.00006    -14.415871
   4.01495    -14.481613
   4.02985    -14.556570
   4.04474    -14.637951
   4.05964    -14.723708
   4.07453    -14.812474
   4.08943    -14.903246
   4.10432    -14.995332
   4.11922    -15.088198
   4.13411    -15.181475
   4.14901    -15.274878
   4.16391    -15.368183
   4.17880    -15.461207
   4.19370    -15.553841
   4.20859    -15.645964
   4.22349    -15.737494
   4.23838    -15.828351
   4.25328    -15.918473
   4.26817    -16.007854
   4.28307    -16.096375
   4.29796    -16.184051
   4.31286    -16.270886
   4.32775    -16.356774
   4.34265    -16.441729
   4.35755    -16.525740
   4.37244    -16.608791
   4.38734    -16.690860
   4.40223    -16.771930
   4.41713    -16.852001
   4.43202    -16.931030
   4.44692    -17.008911
   4.46181    -17.085859
   4.47671    -17.161752
   4.49160    -17.236579
   4.50650    -17.310331
   4.52139    -17.383000
   4.53629    -17.454582
   4.55119    -17.525066
   4.56608    -17.594445
   4.58098    -17.662721
   4.59587    -17.729881
   4.61077    -17.795913
   4.62566    -17.860832
   4.64056    -17.924617
   4.65545    -17.987269
   4.67035    -18.048789
   4.68524    -18.109158
   4.70014    -18.168386
   4.71503    -18.226460
   4.72993    -18.283388
   4.74483    -18.339161
   4.75972    -18.393772
   4.77462    -18.447227
   4.78951    -18.499501
   4.80441    -18.550624
   4.81930    -18.600568
   4.83420    -18.649344
   4.84909    -18.696939
   4.86399    -18.743357
   4.87888    -18.788599
   4.89378    -18.832657
   4.90867    -18.875533
   4.92357    -18.917220
   4.93847    -18.957719
   4.95336    -18.997029
   4.96826    -19.035142
   4.98315    -19.072057
   4.99805    -19.107777
   5.01294    -19.142304
   5.02784    -19.175633
   5.04273    -19.207758
   5.05763    -19.238687
   5.07252    -19.268409
   5.08742    -19.296920
   5.10232    -19.324240
   5.11721    -19.350349
   5.13211    -19.375252
   5.14700    -19.398950
   5.16190    -19.421437
   5.17679    -19.442714
   5.19169    -19.462778
   5.20658    -19.481629
   5.22148    -19.499267
   5.23637    -19.515695
   5.25127    -19.530907
   5.26616    -19.544905
   5.28106    -19.557688
   5.29596    -19.569254
   5.31085    -19.579603
   5.32575    -19.588742
   5.34064    -19.596651
   5.35554    -19.603345
   5.37043    -19.608825
   5.38533    -19.613089
   5.40022    -19.616130
   5.41512    -19.617958
   5.43001    -19.618571
 
 
# Band-Index    2
   5.43001    -19.499926
   5.41512    -19.499322
   5.40022    -19.497507
   5.38533    -19.494485
   5.37043    -19.490252
   5.35554    -19.484812
   5.34064    -19.478166
   5.32575    -19.470309
   5.31085    -19.461242
   5.29596    -19.450969
   5.28106    -19.439488
   5.26616    -19.426800
   5.25127    -19.412904
   5.23637    -19.397804
   5.22148    -19.381497
   5.20658    -19.363987
   5.19169    -19.345273
   5.17679    -19.325357
   5.16190    -19.304237
   5.14700    -19.281916
   5.13211    -19.258393
   5.11721    -19.233669
   5.10232    -19.207752
   5.08742    -19.180645
   5.07252    -19.152335
   5.05763    -19.122827
   5.04273    -19.092127
   5.02784    -19.060240
   5.01294    -19.027154
   4.99805    -18.992882
   4.98315    -18.957433
   4.96826    -18.920786
   4.95336    -18.882956
   4.93847    -18.843937
   4.92357    -18.803739
   4.90867    -18.762362
   4.89378    -18.719804
   4.87888    -18.676073
   4.86399    -18.631172
   4.84909    -18.585100
   4.83420    -18.537850
   4.81930    -18.489436
   4.80441    -18.439859
   4.78951    -18.389110
   4.77462    -18.337209
   4.75972    -18.284146
   4.74483    -18.229946
   4.72993    -18.174581
   4.71503    -18.118070
   4.70014    -18.060417
   4.68524    -18.001623
   4.67035    -17.941692
   4.65545    -17.880621
   4.64056    -17.818426
   4.62566    -17.755103
   4.61077    -17.690675
   4.59587    -17.625134
   4.58098    -17.558463
   4.56608    -17.490685
   4.55119    -17.421815
   4.53629    -17.351853
   4.52139    -17.280798
   4.50650    -17.208662
   4.49160    -17.135449
   4.47671    -17.061193
   4.46181    -16.985863
   4.44692    -16.909476
   4.43202    -16.832097
   4.41713    -16.753713
   4.40223    -16.674278
   4.38734    -16.593875
   4.37244    -16.512450
   4.35755    -16.430024
   4.34265    -16.346648
   4.32775    -16.262320
   4.31286    -16.177067
   4.29796    -16.090918
   4.28307    -16.003908
   4.26817    -15.916082
   4.25328    -15.827445
   4.23838    -15.738077
   4.22349    -15.648023
   4.20859    -15.557345
   4.19370    -15.466117
   4.17880    -15.374406
   4.16391    -15.282400
   4.14901    -15.190167
   4.13411    -15.097966
   4.11922    -15.005974
   4.10432    -14.914596
   4.08943    -14.824185
   4.07453    -14.735406
   4.05964    -14.649012
   4.04474    -14.566193
   4.02985    -14.488477
   4.01495    -14.418118
   4.00006    -14.358002
   3.98516    -14.311621
   3.97026    -14.282358
   3.95537    -14.272394
   3.95537    -14.272394
   3.93262    -14.281653
   3.90986    -14.308792
   3.88711    -14.351623
   3.86436    -14.406732
   3.84160    -14.470629
   3.81885    -14.540358
   3.79610    -14.613750
   3.77334    -14.689164
   3.75059    -14.765444
   3.72784    -14.841800
   3.70508    -14.917599
   3.68233    -14.992396
   3.65958    -15.065897
   3.63683    -15.137818
   3.61407    -15.207929
   3.59132    -15.276122
   3.56857    -15.342251
   3.54581    -15.406216
   3.52306    -15.467968
   3.50031    -15.527376
   3.47755    -15.584416
   3.45480    -15.639049
   3.43205    -15.691216
   3.40929    -15.740864
   3.38654    -15.788013
   3.36379    -15.832602
   3.34103    -15.874661
   3.31828    -15.914128
   3.29553    -15.951004
   3.27277    -15.985247
   3.25002    -16.016864
   3.22727    -16.045852
   3.20452    -16.072178
   3.18176    -16.095846
   3.15901    -16.116843
   3.13626    -16.135169
   3.11350    -16.150822
   3.09075    -16.163779
   3.06800    -16.174070
   3.04524    -16.181676
   3.02249    -16.186588
   2.99974    -16.188849
   2.97698    -16.188438
   2.95423    -16.185352
   2.93148    -16.179613
   2.90872    -16.171181
   2.88597    -16.160096
   2.86322    -16.146326
   2.84046    -16.129892
   2.81771    -16.110789
   2.79496    -16.089048
   2.77220    -16.064660
   2.74945    -16.037636
   2.72670    -16.007974
   2.70395    -15.975717
   2.68119    -15.940844
   2.65844    -15.903376
   2.63569    -15.863330
   2.61293    -15.820718
   2.59018    -15.775562
   2.56743    -15.727858
   2.54467    -15.677644
   2.52192    -15.624918
   2.49917    -15.569726
   2.47641    -15.512059
   2.45366    -15.451966
   2.43091    -15.389438
   2.40815    -15.324541
   2.38540    -15.257293
   2.36265    -15.187703
   2.33989    -15.115885
   2.31714    -15.041776
   2.29439    -14.965450
   2.27164    -14.886948
   2.24888    -14.806324
   2.22613    -14.723639
   2.20338    -14.638939
   2.18062    -14.552301
   2.15787    -14.463823
   2.13512    -14.373543
   2.11236    -14.281578
   2.08961    -14.188023
   2.06686    -14.092983
   2.04410    -13.996603
   2.02135    -13.899018
   1.99860    -13.800386
   1.97584    -13.700862
   1.95309    -13.600702
   1.93034    -13.500092
   1.90758    -13.399252
   1.88483    -13.298440
   1.86208    -13.197978
   1.83933    -13.098143
   1.81657    -12.999271
   1.79382    -12.901670
   1.77107    -12.805693
   1.74831    -12.711846
   1.72556    -12.622172
   1.70281    -12.613055
   1.70281    -12.613055
   1.68561    -12.632818
   1.66841    -12.704170
   1.65121    -12.789054
   1.63401    -12.881582
   1.61681    -12.979776
   1.59961    -13.082429
   1.58241    -13.188566
   1.56521    -13.297505
   1.54801    -13.408592
   1.53081    -13.521317
   1.51361    -13.635258
   1.49641    -13.750057
   1.47921    -13.865438
   1.46201    -13.981108
   1.44481    -14.096901
   1.42761    -14.212570
   1.41041    -14.328062
   1.39321    -14.443136
   1.37601    -14.557733
   1.35880    -14.671740
   1.34160    -14.785109
   1.32440    -14.897677
   1.30720    -15.009483
   1.29000    -15.120441
   1.27280    -15.230445
   1.25560    -15.339509
   1.23840    -15.447508
   1.22120    -15.554466
   1.20400    -15.660327
   1.18680    -15.765059
   1.16960    -15.868626
   1.15240    -15.970985
   1.13520    -16.072128
   1.11800    -16.172028
   1.10080    -16.270644
   1.08360    -16.367939
   1.06640    -16.463946
   1.04920    -16.558580
   1.03200    -16.651879
   1.01480    -16.743898
   0.99760    -16.834549
   0.98040    -16.923822
   0.96320    -17.011701
   0.94600    -17.098165
   0.92880    -17.183213
   0.91160    -17.266818
   0.89440    -17.348990
   0.87720    -17.429717
   0.86000    -17.508963
   0.84280    -17.586761
   0.82560    -17.663068
   0.80840    -17.737910
   0.79120    -17.811241
   0.77400    -17.883093
   0.75680    -17.953441
   0.73960    -18.022275
   0.72240    -18.089594
   0.70520    -18.155391
   0.68800    -18.219644
   0.67080    -18.282383
   0.65360    -18.343588
   0.63640    -18.403252
   0.61920    -18.461367
   0.60200    -18.517937
   0.58480    -18.572937
   0.56760    -18.626384
   0.55040    -18.678278
   0.53320    -18.728602
   0.51600    -18.777347
   0.49880    -18.824536
   0.48160    -18.870153
   0.46440    -18.914183
   0.44720    -18.956635
   0.43000    -18.997509
   0.41280    -19.036795
   0.39560    -19.074499
   0.37840    -19.110608
   0.36120    -19.145123
   0.34400    -19.178054
   0.32680    -19.209384
   0.30960    -19.239112
   0.29240    -19.267249
   0.27520    -19.293788
   0.25800    -19.318726
   0.24080    -19.342062
   0.22360    -19.363794
   0.20640    -19.383922
   0.18920    -19.402441
   0.17200    -19.419354
   0.15480    -19.434658
   0.13760    -19.448349
   0.12040    -19.460437
   0.10320    -19.470913
   0.08600    -19.479778
   0.06880    -19.487029
   0.05160    -19.492672
   0.03440    -19.496702
   0.01720    -19.499120
   0.00000    -19.499926
 
 
# Band-Index    3
   0.00000     -8.084303
   0.01720     -8.083324
   0.03440     -8.080384
   0.05160     -8.075486
   0.06880     -8.068627
   0.08600     -8.059823
   0.10320     -8.049046
   0.12040     -8.036316
   0.13760     -8.021630
   0.15480     -8.005007
   0.17200     -7.986419
   0.18920     -7.965880
   0.20640     -7.943391
   0.22360     -7.918956
   0.24080     -7.892582
   0.25800     -7.864266
   0.27520     -7.834018
   0.29240     -7.801841
   0.30960     -7.767733
   0.32680     -7.731702
   0.34400     -7.693752
   0.36120     -7.653882
   0.37840     -7.612117
   0.39560     -7.568426
   0.41280     -7.522830
   0.43000     -7.475354
   0.44720     -7.425981
   0.46440     -7.374726
   0.48160     -7.321602
   0.49880     -7.266611
   0.51600     -7.209742
   0.53320     -7.151039
   0.55040     -7.090492
   0.56760     -7.028110
   0.58480     -6.963911
   0.60200     -6.897889
   0.61920     -6.830061
   0.63640     -6.760450
   0.65360     -6.689060
   0.67080     -6.615988
   0.68800     -6.575949
   0.70520     -6.701306
   0.72240     -6.827363
   0.73960     -6.953279
   0.75680     -7.078965
   0.77400     -7.204354
   0.79120     -7.329368
   0.80840     -7.453929
   0.82560     -7.578027
   0.84280     -7.701613
   0.86000     -7.824526
   0.87720     -7.946923
   0.89440     -8.068619
   0.91160     -8.189654
   0.92880     -8.309932
   0.94600     -8.429454
   0.96320     -8.548163
   0.98040     -8.666035
   0.99760     -8.783059
   1.01480     -8.899198
   1.03200     -9.014392
   1.04920     -9.128664
   1.06640     -9.241983
   1.08360     -9.354299
   1.10080     -9.465621
   1.11800     -9.575899
   1.13520     -9.685134
   1.15240     -9.793296
   1.16960     -9.900394
   1.18680    -10.006380
   1.20400    -10.111267
   1.22120    -10.215031
   1.23840    -10.317646
   1.25560    -10.419117
   1.27280    -10.519409
   1.29000    -10.618520
   1.30720    -10.716470
   1.32440    -10.813200
   1.34160    -10.908751
   1.35880    -11.003078
   1.37601    -11.096157
   1.39321    -11.188022
   1.41041    -11.278609
   1.42761    -11.367965
   1.44481    -11.456057
   1.46201    -11.542844
   1.47921    -11.628379
   1.49641    -11.712607
   1.51361    -11.795563
   1.53081    -11.877175
   1.54801    -11.957501
   1.56521    -12.036473
   1.58241    -12.114093
   1.59961    -12.190334
   1.61681    -12.265121
   1.63401    -12.338325
   1.65121    -12.409729
   1.66841    -12.478442
   1.68561    -12.539852
   1.70281    -12.556526
   1.70281    -12.556526
   1.72556    -12.555059
   1.74831    -12.488968
   1.77107    -12.433985
   1.79382    -12.391205
   1.81657    -12.359196
   1.83933    -12.335876
   1.86208    -12.319187
   1.88483    -12.307222
   1.90758    -12.298447
   1.93034    -12.291571
   1.95309    -12.285609
   1.97584    -12.279779
   1.99860    -12.273488
   2.02135    -12.266282
   2.04410    -12.257769
   2.06686    -12.247722
   2.08961    -12.235941
   2.11236    -12.222222
   2.13512    -12.206476
   2.15787    -12.188621
   2.18062    -12.168552
   2.20338    -12.146245
   2.22613    -12.121682
   2.24888    -12.094783
   2.27164    -12.065560
   2.29439    -12.034031
   2.31714    -12.000155
   2.33989    -11.963940
   2.36265    -11.925400
   2.38540    -11.884571
   2.40815    -11.841416
   2.43091    -11.795976
   2.45366    -11.748309
   2.47641    -11.698405
   2.49917    -11.646340
   2.52192    -11.592083
   2.54467    -11.535690
   2.56743    -11.477203
   2.59018    -11.416692
   2.61293    -11.354177
   2.63569    -11.289719
   2.65844    -11.223370
   2.68119    -11.155225
   2.70395    -11.085320
   2.72670    -11.013747
   2.74945    -10.940612
   2.77220    -10.866010
   2.79496    -10.790037
   2.81771    -10.712835
   2.84046    -10.634620
   2.86322    -10.555518
   2.88597    -10.475774
   2.90872    -10.395631
   2.93148    -10.315418
   2.95423    -10.235513
   2.97698    -10.156406
   2.99974    -10.078737
   3.02249    -10.003275
   3.04524     -9.931012
   3.06800     -9.863308
   3.09075     -9.801866
   3.11350     -9.748978
   3.13626     -9.707429
   3.15901     -9.680593
   3.18176     -9.672097
   3.20452     -9.685082
   3.22727     -9.721136
   3.25002     -9.779518
   3.27277     -9.857546
   3.29553     -9.951761
   3.31828    -10.058671
   3.34103    -10.175307
   3.36379    -10.299218
   3.38654    -10.428483
   3.40929    -10.561622
   3.43205    -10.697432
   3.45480    -10.835040
   3.47755    -10.973684
   3.50031    -11.112804
   3.52306    -11.251876
   3.54581    -11.390513
   3.56857    -11.528357
   3.59132    -11.665072
   3.61407    -11.800321
   3.63683    -11.933853
   3.65958    -12.065308
   3.68233    -12.194405
   3.70508    -12.320727
   3.72784    -12.443906
   3.75059    -12.563377
   3.77334    -12.678453
   3.79610    -12.788221
   3.81885    -12.891517
   3.84160    -12.986693
   3.86436    -13.071401
   3.88711    -13.142666
   3.90986    -13.196876
   3.93262    -13.230707
   3.95537    -13.242092
   3.95537    -13.242092
   3.97026    -13.231381
   3.98516    -13.199557
   4.00006    -13.148672
   4.01495    -13.081993
   4.02985    -13.003107
   4.04474    -12.915074
   4.05964    -12.819985
   4.07453    -12.719495
   4.08943    -12.614790
   4.10432    -12.506644
   4.11922    -12.395683
   4.13411    -12.282419
   4.14901    -12.167078
   4.16391    -12.050009
   4.17880    -11.931372
   4.19370    -11.811297
   4.20859    -11.689963
   4.22349    -11.567452
   4.23838    -11.443869
   4.25328    -11.319259
   4.26817    -11.193748
   4.28307    -11.067318
   4.29796    -10.940073
   4.31286    -10.812057
   4.32775    -10.683313
   4.34265    -10.553874
   4.35755    -10.423767
   4.37244    -10.293047
   4.38734    -10.161767
   4.40223    -10.029909
   4.41713     -9.897589
   4.43202     -9.764771
   4.44692     -9.631515
   4.46181     -9.497896
   4.47671     -9.363923
   4.49160     -9.229616
   4.50650     -9.095027
   4.52139     -8.960215
   4.53629     -8.825152
   4.55119     -8.689939
   4.56608     -8.554582
   4.58098     -8.419186
   4.59587     -8.283726
   4.61077     -8.148254
   4.62566     -8.012852
   4.64056     -7.877572
   4.65545     -7.742406
   4.67035     -7.607464
   4.68524     -7.472763
   4.70014     -7.338418
   4.71503     -7.204399
   4.72993     -7.070811
   4.74483     -6.937724
   4.75972     -6.805231
   4.77462     -6.685527
   4.78951     -6.745296
   4.80441     -6.805845
   4.81930     -6.865106
   4.83420     -6.923043
   4.84909     -6.979652
   4.86399     -7.034899
   4.87888     -7.088792
   4.89378     -7.141325
   4.90867     -7.192477
   4.92357     -7.242248
   4.93847     -7.290643
   4.95336     -7.337640
   4.96826     -7.383239
   4.98315     -7.427439
   4.99805     -7.470204
   5.01294     -7.511578
   5.02784     -7.551549
   5.04273     -7.590093
   5.05763     -7.627207
   5.07252     -7.662892
   5.08742     -7.697146
   5.10232     -7.729972
   5.11721     -7.761351
   5.13211     -7.791295
   5.14700     -7.819791
   5.16190     -7.846839
   5.17679     -7.872441
   5.19169     -7.896600
   5.20658     -7.919295
   5.22148     -7.940537
   5.23637     -7.960322
   5.25127     -7.978646
   5.26616     -7.995516
   5.28106     -8.010919
   5.29596     -8.024858
   5.31085     -8.037331
   5.32575     -8.048341
   5.34064     -8.057884
   5.35554     -8.065946
   5.37043     -8.072552
   5.38533     -8.077694
   5.40022     -8.081365
   5.41512     -8.083570
   5.43001     -8.084303
 
 
# Band-Index    4
   5.43001     -7.249191
   5.41512     -7.248469
   5.40022     -7.246324
   5.38533     -7.242763
   5.37043     -7.237761
   5.35554     -7.231336
   5.34064     -7.223496
   5.32575     -7.214224
   5.31085     -7.203507
   5.29596     -7.191377
   5.28106     -7.177824
   5.26616     -7.162847
   5.25127     -7.146445
   5.23637     -7.128634
   5.22148     -7.109401
   5.20658     -7.088752
   5.19169     -7.066698
   5.17679     -7.043220
   5.16190     -7.018344
   5.14700     -6.992067
   5.13211     -6.964386
   5.11721     -6.935306
   5.10232     -6.904833
   5.08742     -6.872953
   5.07252     -6.839712
   5.05763     -6.805076
   5.04273     -6.769058
   5.02784     -6.731661
   5.01294     -6.692884
   4.99805     -6.652756
   4.98315     -6.611273
   4.96826     -6.568435
   4.95336     -6.524240
   4.93847     -6.478705
   4.92357     -6.431835
   4.90867     -6.383640
   4.89378     -6.334127
   4.87888     -6.283290
   4.86399     -6.231175
   4.84909     -6.177821
   4.83420     -6.153129
   4.81930     -6.281693
   4.80441     -6.411336
   4.78951     -6.541778
   4.77462     -6.671027
   4.75972     -6.771119
   4.74483     -6.902840
   4.72993     -7.035109
   4.71503     -7.167862
   4.70014     -7.301071
   4.68524     -7.434615
   4.67035     -7.568475
   4.65545     -7.702577
   4.64056     -7.836910
   4.62566     -7.971381
   4.61077     -8.105955
   4.59587     -8.240559
   4.58098     -8.375199
   4.56608     -8.509784
   4.55119     -8.644277
   4.53629     -8.778669
   4.52139     -8.912896
   4.50650     -9.046892
   4.49160     -9.180649
   4.47671     -9.314150
   4.46181     -9.447305
   4.44692     -9.580114
   4.43202     -9.712586
   4.41713     -9.844611
   4.40223     -9.976112
   4.38734    -10.107183
   4.37244    -10.237706
   4.35755    -10.367637
   4.34265    -10.497000
   4.32775    -10.625734
   4.31286    -10.753790
   4.29796    -10.881074
   4.28307    -11.007651
   4.26817    -11.133423
   4.25328    -11.258283
   4.23838    -11.382289
   4.22349    -11.505309
   4.20859    -11.627251
   4.19370    -11.748103
   4.17880    -11.867749
   4.16391    -11.986013
   4.14901    -12.102811
   4.13411    -12.217969
   4.11922    -12.331224
   4.10432    -12.442315
   4.08943    -12.550851
   4.07453    -12.656332
   4.05964    -12.758036
   4.04474    -12.855004
   4.02985    -12.945841
   4.01495    -13.028588
   4.00006    -13.100432
   3.98516    -13.157598
   3.97026    -13.195298
   3.95537    -13.208642
   3.95537    -13.208642
   3.93262    -13.194635
   3.90986    -13.154949
   3.88711    -13.094521
   3.86436    -13.018144
   3.84160    -12.929647
   3.81885    -12.831839
   3.79610    -12.726753
   3.77334    -12.615812
   3.75059    -12.500093
   3.72784    -12.380339
   3.70508    -12.257176
   3.68233    -12.131071
   3.65958    -12.002372
   3.63683    -11.871471
   3.61407    -11.738600
   3.59132    -11.604122
   3.56857    -11.468306
   3.54581    -11.331438
   3.52306    -11.193868
   3.50031    -11.055979
   3.47755    -10.918142
   3.45480    -10.780930
   3.43205    -10.644901
   3.40929    -10.510855
   3.38654    -10.379742
   3.36379    -10.252724
   3.34103    -10.131423
   3.31828    -10.017821
   3.29553     -9.914365
   3.27277     -9.823894
   3.25002     -9.749506
   3.22727     -9.693888
   3.20452     -9.658765
   3.18176     -9.644521
   3.15901     -9.650180
   3.13626     -9.673575
   3.11350     -9.711742
   3.09075     -9.761632
   3.06800     -9.820466
   3.04524     -9.885963
   3.02249     -9.956343
   2.99974    -10.030181
   2.97698    -10.106441
   2.95423    -10.184300
   2.93148    -10.263087
   2.90872    -10.342278
   2.88597    -10.421489
   2.86322    -10.500390
   2.84046    -10.578698
   2.81771    -10.656201
   2.79496    -10.732677
   2.77220    -10.808030
   2.74945    -10.882071
   2.72670    -10.954685
   2.70395    -11.025745
   2.68119    -11.095176
   2.65844    -11.162910
   2.63569    -11.228871
   2.61293    -11.292948
   2.59018    -11.355153
   2.56743    -11.415373
   2.54467    -11.473575
   2.52192    -11.529697
   2.49917    -11.583734
   2.47641    -11.635643
   2.45366    -11.685410
   2.43091    -11.732985
   2.40815    -11.778348
   2.38540    -11.821484
   2.36265    -11.862345
   2.33989    -11.900956
   2.31714    -11.937275
   2.29439    -11.971303
   2.27164    -12.003052
   2.24888    -12.032549
   2.22613    -12.059770
   2.20338    -12.084760
   2.18062    -12.107534
   2.15787    -12.128152
   2.13512    -12.146680
   2.11236    -12.163177
   2.08961    -12.177771
   2.06686    -12.190586
   2.04410    -12.201805
   2.02135    -12.211656
   1.99860    -12.220452
   1.97584    -12.228582
   1.95309    -12.236517
   1.93034    -12.244900
   1.90758    -12.254521
   1.88483    -12.266369
   1.86208    -12.281698
   1.83933    -12.301871
   1.81657    -12.328434
   1.79382    -12.362859
   1.77107    -12.406392
   1.74831    -12.459915
   1.72556    -12.521954
   1.70281    -12.520584
   1.70281    -12.520584
   1.68561    -12.504386
   1.66841    -12.442709
   1.65121    -12.374155
   1.63401    -12.302970
   1.61681    -12.230032
   1.59961    -12.155512
   1.58241    -12.079550
   1.56521    -12.002218
   1.54801    -11.923532
   1.53081    -11.843494
   1.51361    -11.762176
   1.49641    -11.679505
   1.47921    -11.595566
   1.46201    -11.510322
   1.44481    -11.423832
   1.42761    -11.336048
   1.41041    -11.247006
   1.39321    -11.156724
   1.37601    -11.065208
   1.35880    -10.972450
   1.34160    -10.878456
   1.32440    -10.783249
   1.30720    -10.686819
   1.29000    -10.589200
   1.27280    -10.490420
   1.25560    -10.390464
   1.23840    -10.289322
   1.22120    -10.187048
   1.20400    -10.083616
   1.18680     -9.979061
   1.16960     -9.873423
   1.15240     -9.766654
   1.13520     -9.658817
   1.11800     -9.549935
   1.10080     -9.439992
   1.08360     -9.329011
   1.06640     -9.217051
   1.04920     -9.104081
   1.03200     -8.990145
   1.01480     -8.875292
   0.99760     -8.759496
   0.98040     -8.642814
   0.96320     -8.525295
   0.94600     -8.406920
   0.92880     -8.287745
   0.91160     -8.167816
   0.89440     -8.047127
   0.87720     -7.925758
   0.86000     -7.803717
   0.84280     -7.681119
   0.82560     -7.557911
   0.80840     -7.434192
   0.79120     -7.309979
   0.77400     -7.185319
   0.75680     -7.060278
   0.73960     -6.934925
   0.72240     -6.809318
   0.70520     -6.683533
   0.68800     -6.557738
   0.67080     -6.448356
   0.65360     -6.322205
   0.63640     -6.196091
   0.61920     -6.070202
   0.60200     -6.098428
   0.58480     -6.162197
   0.56760     -6.224293
   0.55040     -6.284669
   0.53320     -6.343292
   0.51600     -6.400146
   0.49880     -6.455232
   0.48160     -6.508529
   0.46440     -6.560037
   0.44720     -6.609738
   0.43000     -6.657627
   0.41280     -6.703689
   0.39560     -6.747935
   0.37840     -6.790338
   0.36120     -6.830887
   0.34400     -6.869593
   0.32680     -6.906452
   0.30960     -6.941449
   0.29240     -6.974584
   0.27520     -7.005846
   0.25800     -7.035238
   0.24080     -7.062763
   0.22360     -7.088401
   0.20640     -7.112154
   0.18920     -7.134000
   0.17200     -7.153970
   0.15480     -7.172043
   0.13760     -7.188219
   0.12040     -7.202502
   0.10320     -7.214882
   0.08600     -7.225374
   0.06880     -7.233943
   0.05160     -7.240615
   0.03440     -7.245367
   0.01720     -7.248225
   0.00000     -7.249191
 
 
# Band-Index    5
   0.00000     -3.017990
   0.01720     -3.020989
   0.03440     -3.030049
   0.05160     -3.045332
   0.06880     -3.067017
   0.08600     -3.095228
   0.10320     -3.129980
   0.12040     -3.171182
   0.13760     -3.218639
   0.15480     -3.272148
   0.17200     -3.331441
   0.18920     -3.396217
   0.20640     -3.466239
   0.22360     -3.541193
   0.24080     -3.620825
   0.25800     -3.704854
   0.27520     -3.792990
   0.29240     -3.884988
   0.30960     -3.980589
   0.32680     -4.079569
   0.34400     -4.181597
   0.36120     -4.286463
   0.37840     -4.393982
   0.39560     -4.503904
   0.41280     -4.616024
   0.43000     -4.730154
   0.44720     -4.846097
   0.46440     -4.963666
   0.48160     -5.082703
   0.49880     -5.203032
   0.51600     -5.324533
   0.53320     -5.447056
   0.55040     -5.570426
   0.56760     -5.694533
   0.58480     -5.819278
   0.60200     -5.944521
   0.61920     -6.055568
   0.63640     -6.179986
   0.65360     -6.305723
   0.67080     -6.431630
   0.68800     -6.539605
   0.70520     -6.463957
   0.72240     -6.385612
   0.73960     -6.305489
   0.75680     -6.223653
   0.77400     -6.140112
   0.79120     -6.054935
   0.80840     -6.113146
   0.82560     -6.219572
   0.84280     -6.326385
   0.86000     -6.433408
   0.87720     -6.540636
   0.89440     -6.647961
   0.91160     -6.755381
   0.92880     -6.862783
   0.94600     -6.970119
   0.96320     -7.077348
   0.98040     -7.184390
   0.99760     -7.291217
   1.01480     -7.397750
   1.03200     -7.503946
   1.04920     -7.609738
   1.06640     -7.715096
   1.08360     -7.819955
   1.10080     -7.924239
   1.11800     -8.027936
   1.13520     -8.130948
   1.15240     -8.233261
   1.16960     -8.334843
   1.18680     -8.435578
   1.20400     -8.535455
   1.22120     -8.634441
   1.23840     -8.732449
   1.25560     -8.829428
   1.27280     -8.925303
   1.29000     -9.020099
   1.30720     -9.113658
   1.32440     -9.205943
   1.34160     -9.296894
   1.35880     -9.386451
   1.37601     -9.474474
   1.39321     -9.560897
   1.41041     -9.645616
   1.42761     -9.728554
   1.44481     -9.809511
   1.46201     -9.888342
   1.47921     -9.964912
   1.49641    -10.039016
   1.51361    -10.110394
   1.53081    -10.178751
   1.54801    -10.243785
   1.56521    -10.305093
   1.58241    -10.362165
   1.59961    -10.414477
   1.61681    -10.461311
   1.63401    -10.501878
   1.65121    -10.535325
   1.66841    -10.560582
   1.68561    -10.576548
   1.70281    -10.582367
   1.70281    -10.582367
   1.72556    -10.570286
   1.74831    -10.538001
   1.77107    -10.485750
   1.79382    -10.414525
   1.81657    -10.326010
   1.83933    -10.222309
   1.86208    -10.105663
   1.88483     -9.978262
   1.90758     -9.842075
   1.93034     -9.698797
   1.95309     -9.549926
   1.97584     -9.396696
   1.99860     -9.240203
   2.02135     -9.081327
   2.04410     -8.920928
   2.06686     -8.759677
   2.08961     -8.598258
   2.11236     -8.437260
   2.13512     -8.277273
   2.15787     -8.118859
   2.18062     -7.962587
   2.20338     -7.808972
   2.22613     -7.658604
   2.24888     -7.512045
   2.27164     -7.369805
   2.29439     -7.232552
   2.31714     -7.100814
   2.33989     -6.975210
   2.36265     -6.856245
   2.38540     -6.744566
   2.40815     -6.640821
   2.43091     -6.545483
   2.45366     -6.459116
   2.47641     -6.382217
   2.49917     -6.315244
   2.52192     -6.258559
   2.54467     -6.212526
   2.56743     -6.177413
   2.59018     -6.153333
   2.61293     -6.140434
   2.63569     -6.138675
   2.65844     -6.148010
   2.68119     -6.168214
   2.70395     -6.199000
   2.72670     -6.240041
   2.74945     -6.290926
   2.77220     -6.351111
   2.79496     -6.420085
   2.81771     -6.497216
   2.84046     -6.581906
   2.86322     -6.673485
   2.88597     -6.771089
   2.90872     -6.874063
   2.93148     -6.981566
   2.95423     -7.092696
   2.97698     -7.206518
   2.99974     -7.321953
   3.02249     -7.437758
   3.04524     -7.552484
   3.06800     -7.664402
   3.09075     -7.771376
   3.11350     -7.870845
   3.13626     -7.959760
   3.15901     -8.034761
   3.18176     -8.092605
   3.20452     -8.130896
   3.22727     -8.148499
   3.25002     -8.145720
   3.27277     -8.124236
   3.29553     -8.086741
   3.31828     -8.036295
   3.34103     -7.975808
   3.36379     -7.907770
   3.38654     -7.834134
   3.40929     -7.756510
   3.43205     -7.676189
   3.45480     -7.594173
   3.47755     -7.511302
   3.50031     -7.428338
   3.52306     -7.345836
   3.54581     -7.264347
   3.56857     -7.184404
   3.59132     -7.106424
   3.61407     -7.030833
   3.63683     -6.958046
   3.65958     -6.888322
   3.68233     -6.822202
   3.70508     -6.759917
   3.72784     -6.701831
   3.75059     -6.648266
   3.77334     -6.599475
   3.79610     -6.555737
   3.81885     -6.517310
   3.84160     -6.484383
   3.86436     -6.457175
   3.88711     -6.435836
   3.90986     -6.420497
   3.93262     -6.411269
   3.95537     -6.408184
   3.95537     -6.408184
   3.97026     -6.407579
   3.98516     -6.405767
   4.00006     -6.402750
   4.01495     -6.398503
   4.02985     -6.393077
   4.04474     -6.386450
   4.05964     -6.378624
   4.07453     -6.369614
   4.08943     -6.359388
   4.10432     -6.347972
   4.11922     -6.335360
   4.13411     -6.321569
   4.14901     -6.306584
   4.16391     -6.290429
   4.17880     -6.273062
   4.19370     -6.254554
   4.20859     -6.234903
   4.22349     -6.214067
   4.23838     -6.192100
   4.25328     -6.168998
   4.26817     -6.144760
   4.28307     -6.119381
   4.29796     -6.092896
   4.31286     -6.065304
   4.32775     -6.036583
   4.34265     -6.006788
   4.35755     -5.975942
   4.37244     -5.944020
   4.38734     -5.911026
   4.40223     -5.877008
   4.41713     -5.841970
   4.43202     -5.805888
   4.44692     -5.768847
   4.46181     -5.730815
   4.47671     -5.691762
   4.49160     -5.651805
   4.50650     -5.610928
   4.52139     -5.569132
   4.53629     -5.526549
   4.55119     -5.604526
   4.56608     -5.684593
   4.58098     -5.763586
   4.59587     -5.841496
   4.61077     -5.918246
   4.62566     -5.993857
   4.64056     -6.068307
   4.65545     -6.141579
   4.67035     -6.213641
   4.68524     -6.284487
   4.70014     -6.354092
   4.71503     -6.422442
   4.72993     -6.489525
   4.74483     -6.555314
   4.75972     -6.619759
   4.77462     -6.639776
   4.78951     -6.509496
   4.80441     -6.379856
   4.81930     -6.251051
   4.83420     -6.127540
   4.84909     -6.025132
   4.86399     -5.898420
   4.87888     -5.772880
   4.89378     -5.648590
   4.90867     -5.525621
   4.92357     -5.404078
   4.93847     -5.284052
   4.95336     -5.165697
   4.96826     -5.049065
   4.98315     -4.934278
   4.99805     -4.821454
   5.01294     -4.710708
   5.02784     -4.602173
   5.04273     -4.495964
   5.05763     -4.392223
   5.07252     -4.291057
   5.08742     -4.192585
   5.10232     -4.096895
   5.11721     -4.004277
   5.13211     -3.914794
   5.14700     -3.828563
   5.16190     -3.745748
   5.17679     -3.666499
   5.19169     -3.590969
   5.20658     -3.519314
   5.22148     -3.451705
   5.23637     -3.388311
   5.25127     -3.329336
   5.26616     -3.274996
   5.28106     -3.225568
   5.29596     -3.181366
   5.31085     -3.142757
   5.32575     -3.110042
   5.34064     -3.083227
   5.35554     -3.061914
   5.37043     -3.045434
   5.38533     -3.033168
   5.40022     -3.024659
   5.41512     -3.019647
   5.43001     -3.017990
 
 
# Band-Index    6
   5.43001     -3.011422
   5.41512     -3.013072
   5.40022     -3.018059
   5.38533     -3.026540
   5.37043     -3.038774
   5.35554     -3.055212
   5.34064     -3.076428
   5.32575     -3.103015
   5.31085     -3.135346
   5.29596     -3.173459
   5.28106     -3.217107
   5.26616     -3.265964
   5.25127     -3.319725
   5.23637     -3.378120
   5.22148     -3.440920
   5.20658     -3.507932
   5.19169     -3.578977
   5.17679     -3.653867
   5.16190     -3.732476
   5.14700     -3.814636
   5.13211     -3.900199
   5.11721     -3.989010
   5.10232     -4.080921
   5.08742     -4.175842
   5.07252     -4.273616
   5.05763     -4.374107
   5.04273     -4.477150
   5.02784     -4.582616
   5.01294     -4.690398
   4.99805     -4.800372
   4.98315     -4.912407
   4.96826     -5.026397
   4.95336     -5.142216
   4.93847     -5.259779
   4.92357     -5.378983
   4.90867     -5.499709
   4.89378     -5.621869
   4.87888     -5.745353
   4.86399     -5.870063
   4.84909     -5.995914
   4.83420     -6.118191
   4.81930     -6.066791
   4.80441     -6.009595
   4.78951     -5.951088
   4.77462     -5.891343
   4.75972     -5.830348
   4.74483     -5.768134
   4.72993     -5.704716
   4.71503     -5.640104
   4.70014     -5.574319
   4.68524     -5.507377
   4.67035     -5.439296
   4.65545     -5.370094
   4.64056     -5.299799
   4.62566     -5.252833
   4.61077     -5.300355
   4.59587     -5.347182
   4.58098     -5.393222
   4.56608     -5.438460
   4.55119     -5.482870
   4.53629     -5.523396
   4.52139     -5.550343
   4.50650     -5.592058
   4.49160     -5.632857
   4.47671     -5.672733
   4.46181     -5.711672
   4.44692     -5.749635
   4.43202     -5.786604
   4.41713     -5.822601
   4.40223     -5.857573
   4.38734     -5.891532
   4.37244     -5.924443
   4.35755     -5.956308
   4.34265     -5.987110
   4.32775     -6.016831
   4.31286     -6.045472
   4.29796     -6.073015
   4.28307     -6.099452
   4.26817     -6.124780
   4.25328     -6.148971
   4.23838     -6.172027
   4.22349     -6.193952
   4.20859     -6.214744
   4.19370     -6.234360
   4.17880     -6.252837
   4.16391     -6.270154
   4.14901     -6.286284
   4.13411     -6.301245
   4.11922     -6.315010
   4.10432     -6.327618
   4.08943     -6.339023
   4.07453     -6.349237
   4.05964     -6.358226
   4.04474     -6.366051
   4.02985     -6.372657
   4.01495     -6.378078
   4.00006     -6.382304
   3.98516     -6.385297
   3.97026     -6.387125
   3.95537     -6.387729
   3.95537     -6.387729
   3.93262     -6.390768
   3.90986     -6.399900
   3.88711     -6.415058
   3.86436     -6.436124
   3.84160     -6.462999
   3.81885     -6.495527
   3.79610     -6.533508
   3.77334     -6.576728
   3.75059     -6.624972
   3.72784     -6.677946
   3.70508     -6.735396
   3.68233     -6.797020
   3.65958     -6.862455
   3.63683     -6.931440
   3.61407     -7.003573
   3.59132     -7.078477
   3.56857     -7.155777
   3.54581     -7.235052
   3.52306     -7.315906
   3.50031     -7.397836
   3.47755     -7.480295
   3.45480     -7.562764
   3.43205     -7.644505
   3.40929     -7.724748
   3.38654     -7.802495
   3.36379     -7.876592
   3.34103     -7.945486
   3.31828     -8.007272
   3.29553     -8.059533
   3.27277     -8.099253
   3.25002     -8.123155
   3.22727     -8.127858
   3.20452     -8.110855
   3.18176     -8.071570
   3.15901     -8.011719
   3.13626     -7.934492
   3.11350     -7.843674
   3.09075     -7.742781
   3.06800     -7.634954
   3.04524     -7.522599
   3.02249     -7.407787
   2.99974     -7.292175
   2.97698     -7.177169
   2.95423     -7.063904
   2.93148     -6.953430
   2.90872     -6.846661
   2.88597     -6.744431
   2.86322     -6.647581
   2.84046     -6.556834
   2.81771     -6.472932
   2.79496     -6.396559
   2.77220     -6.328297
   2.74945     -6.268750
   2.72670     -6.218453
   2.70395     -6.177903
   2.68119     -6.147517
   2.65844     -6.127607
   2.63569     -6.118477
   2.61293     -6.120305
   2.59018     -6.133169
   2.56743     -6.157080
   2.54467     -6.191959
   2.52192     -6.237622
   2.49917     -6.293823
   2.47641     -6.360218
   2.45366     -6.436436
   2.43091     -6.522040
   2.40815     -6.616553
   2.38540     -6.719411
   2.36265     -6.830096
   2.33989     -6.948075
   2.31714     -7.072688
   2.29439     -7.203397
   2.27164     -7.339579
   2.24888     -7.480716
   2.22613     -7.626203
   2.20338     -7.775528
   2.18062     -7.928111
   2.15787     -8.083392
   2.13512     -8.240892
   2.11236     -8.400024
   2.08961     -8.560240
   2.06686     -8.721000
   2.04410     -8.881693
   2.02135     -9.041705
   1.99860     -9.200376
   1.97584     -9.356879
   1.95309     -9.510395
   1.93034     -9.659885
   1.90758     -9.804231
   1.88483     -9.941963
   1.86208    -10.071550
   1.83933    -10.191036
   1.81657    -10.298310
   1.79382    -10.391143
   1.77107    -10.467304
   1.74831    -10.524923
   1.72556    -10.562784
   1.70281    -10.580303
   1.70281    -10.580303
   1.68561    -10.571387
   1.66841    -10.552193
   1.65121    -10.524173
   1.63401    -10.488375
   1.61681    -10.445834
   1.59961    -10.397387
   1.58241    -10.343747
   1.56521    -10.285618
   1.54801    -10.223474
   1.53081    -10.157752
   1.51361    -10.088863
   1.49641    -10.017052
   1.47921     -9.942646
   1.46201     -9.865837
   1.44481     -9.786849
   1.42761     -9.705798
   1.41041     -9.622831
   1.39321     -9.538104
   1.37601     -9.451733
   1.35880     -9.363788
   1.34160     -9.274346
   1.32440     -9.183535
   1.30720     -9.091390
   1.29000     -8.997998
   1.27280     -8.903402
   1.25560     -8.807722
   1.23840     -8.710957
   1.22120     -8.613180
   1.20400     -8.514418
   1.18680     -8.414789
   1.16960     -8.314300
   1.15240     -8.212966
   1.13520     -8.110907
   1.11800     -8.008170
   1.10080     -7.904744
   1.08360     -7.800748
   1.06640     -7.696189
   1.04920     -7.591125
   1.03200     -7.485628
   1.01480     -7.379710
   0.99760     -7.273467
   0.98040     -7.166927
   0.96320     -7.060191
   0.94600     -6.953239
   0.92880     -6.846212
   0.91160     -6.739102
   0.89440     -6.631973
   0.87720     -6.524935
   0.86000     -6.418023
   0.84280     -6.311313
   0.82560     -6.204842
   0.80840     -6.098738
   0.79120     -6.007135
   0.77400     -5.901569
   0.75680     -5.796566
   0.73960     -5.692158
   0.72240     -5.603786
   0.70520     -5.679259
   0.68800     -5.753243
   0.67080     -5.825578
   0.65360     -5.896242
   0.63640     -5.965172
   0.61920     -6.031230
   0.60200     -5.928765
   0.58480     -5.803953
   0.56760     -5.679565
   0.55040     -5.555823
   0.53320     -5.432794
   0.51600     -5.310651
   0.49880     -5.189500
   0.48160     -5.069528
   0.46440     -4.950841
   0.44720     -4.833633
   0.43000     -4.718045
   0.41280     -4.604268
   0.39560     -4.492488
   0.37840     -4.382897
   0.36120     -4.275687
   0.34400     -4.171116
   0.32680     -4.069389
   0.30960     -3.970713
   0.29240     -3.875415
   0.27520     -3.783700
   0.25800     -3.695823
   0.24080     -3.612066
   0.22360     -3.532690
   0.20640     -3.457962
   0.18920     -3.388150
   0.17200     -3.323574
   0.15480     -3.264471
   0.13760     -3.211127
   0.12040     -3.163829
   0.10320     -3.122777
   0.08600     -3.088176
   0.06880     -3.060098
   0.05160     -3.038549
   0.03440     -3.023380
   0.01720     -3.014395
   0.00000     -3.011422
 
 
# Band-Index    7
   0.00000     -2.947426
   0.01720     -2.949637
   0.03440     -2.956182
   0.05160     -2.966836
   0.06880     -2.981297
   0.08600     -2.999305
   0.10320     -3.020674
   0.12040     -3.045303
   0.13760     -3.073152
   0.15480     -3.104224
   0.17200     -3.138505
   0.18920     -3.175982
   0.20640     -3.216645
   0.22360     -3.260457
   0.24080     -3.307375
   0.25800     -3.357359
   0.27520     -3.410353
   0.29240     -3.466293
   0.30960     -3.525122
   0.32680     -3.586767
   0.34400     -3.651143
   0.36120     -3.718175
   0.37840     -3.787790
   0.39560     -3.859910
   0.41280     -3.934440
   0.43000     -4.011299
   0.44720     -4.090394
   0.46440     -4.171659
   0.48160     -4.254978
   0.49880     -4.340269
   0.51600     -4.427446
   0.53320     -4.516461
   0.55040     -4.607162
   0.56760     -4.699463
   0.58480     -4.793299
   0.60200     -4.888569
   0.61920     -4.985171
   0.63640     -5.083041
   0.65360     -5.182095
   0.67080     -5.282245
   0.68800     -5.383400
   0.70520     -5.485491
   0.72240     -5.588276
   0.73960     -5.678931
   0.75680     -5.783037
   0.77400     -5.887745
   0.79120     -5.992976
   0.80840     -5.968024
   0.82560     -5.879527
   0.84280     -5.789416
   0.86000     -5.697699
   0.87720     -5.604426
   0.89440     -5.509565
   0.91160     -5.413193
   0.92880     -5.315312
   0.94600     -5.215951
   0.96320     -5.115128
   0.98040     -5.012889
   0.99760     -4.909255
   1.01480     -4.804247
   1.03200     -4.697917
   1.04920     -4.590298
   1.06640     -4.481426
   1.08360     -4.371315
   1.10080     -4.260016
   1.11800     -4.147589
   1.13520     -4.034058
   1.15240     -3.919485
   1.16960     -3.803916
   1.18680     -3.687401
   1.20400     -3.569995
   1.22120     -3.451745
   1.23840     -3.332725
   1.25560     -3.212997
   1.27280     -3.092625
   1.29000     -2.971681
   1.30720     -2.850244
   1.32440     -2.728382
   1.34160     -2.606179
   1.35880     -2.483711
   1.37601     -2.361092
   1.39321     -2.238405
   1.41041     -2.115748
   1.42761     -1.993232
   1.44481     -1.870963
   1.46201     -1.749062
   1.47921     -1.627650
   1.49641     -1.506867
   1.51361     -1.386849
   1.53081     -1.267759
   1.54801     -1.149771
   1.56521     -1.033084
   1.58241     -0.917943
   1.59961     -0.804678
   1.61681     -0.693734
   1.63401     -0.585897
   1.65121     -0.482671
   1.66841     -0.387673
   1.68561     -0.311399
   1.70281     -0.281410
   1.70281     -0.281410
   1.72556     -0.324985
   1.74831     -0.424656
   1.77107     -0.538740
   1.79382     -0.656815
   1.81657     -0.775859
   1.83933     -0.894727
   1.86208     -1.012869
   1.88483     -1.129966
   1.90758     -1.245838
   1.93034     -1.360321
   1.95309     -1.473306
   1.97584     -1.584698
   1.99860     -1.694414
   2.02135     -1.802387
   2.04410     -1.908545
   2.06686     -2.012825
   2.08961     -2.115173
   2.11236     -2.215528
   2.13512     -2.313833
   2.15787     -2.410045
   2.18062     -2.504108
   2.20338     -2.595973
   2.22613     -2.685597
   2.24888     -2.772940
   2.27164     -2.857950
   2.29439     -2.940598
   2.31714     -3.020842
   2.33989     -3.098638
   2.36265     -3.173955
   2.38540     -3.246764
   2.40815     -3.317021
   2.43091     -3.384702
   2.45366     -3.449782
   2.47641     -3.512228
   2.49917     -3.572008
   2.52192     -3.629100
   2.54467     -3.683494
   2.56743     -3.735151
   2.59018     -3.784069
   2.61293     -3.830209
   2.63569     -3.873562
   2.65844     -3.914106
   2.68119     -3.951843
   2.70395     -3.986748
   2.72670     -4.018807
   2.74945     -4.048020
   2.77220     -4.074373
   2.79496     -4.097855
   2.81771     -4.118479
   2.84046     -4.136222
   2.86322     -4.151083
   2.88597     -4.163071
   2.90872     -4.172192
   2.93148     -4.178437
   2.95423     -4.181815
   2.97698     -4.182338
   2.99974     -4.180017
   3.02249     -4.174857
   3.04524     -4.166890
   3.06800     -4.156130
   3.09075     -4.142585
   3.11350     -4.126282
   3.13626     -4.107260
   3.15901     -4.085532
   3.18176     -4.061138
   3.20452     -4.034114
   3.22727     -4.004511
   3.25002     -3.972377
   3.27277     -3.937748
   3.29553     -3.900702
   3.31828     -3.861290
   3.34103     -3.819596
   3.36379     -3.775694
   3.38654     -3.729673
   3.40929     -3.681637
   3.43205     -3.631689
   3.45480     -3.579962
   3.47755     -3.526575
   3.50031     -3.471694
   3.52306     -3.415476
   3.54581     -3.358114
   3.56857     -3.299827
   3.59132     -3.240835
   3.61407     -3.181405
   3.63683     -3.121835
   3.65958     -3.062440
   3.68233     -3.003603
   3.70508     -2.945718
   3.72784     -2.889254
   3.75059     -2.834724
   3.77334     -2.782705
   3.79610     -2.733834
   3.81885     -2.688824
   3.84160     -2.648469
   3.86436     -2.613621
   3.88711     -2.585178
   3.90986     -2.564037
   3.93262     -2.550973
   3.95537     -2.546558
   3.95537     -2.546558
   3.97026     -2.551967
   3.98516     -2.568005
   4.00006     -2.594091
   4.01495     -2.629398
   4.02985     -2.673012
   4.04474     -2.723975
   4.05964     -2.781398
   4.07453     -2.844473
   4.08943     -2.912461
   4.10432     -2.984702
   4.11922     -3.060605
   4.13411     -3.139648
   4.14901     -3.221365
   4.16391     -3.305333
   4.17880     -3.391209
   4.19370     -3.478655
   4.20859     -3.567397
   4.22349     -3.657149
   4.23838     -3.747705
   4.25328     -3.838861
   4.26817     -3.930432
   4.28307     -4.022251
   4.29796     -4.114181
   4.31286     -4.206087
   4.32775     -4.297856
   4.34265     -4.389381
   4.35755     -4.480559
   4.37244     -4.571314
   4.38734     -4.661561
   4.40223     -4.751246
   4.41713     -4.840280
   4.43202     -4.928611
   4.44692     -5.016201
   4.46181     -5.102977
   4.47671     -5.188906
   4.49160     -5.273940
   4.50650     -5.358050
   4.52139     -5.441202
   4.53629     -5.507589
   4.55119     -5.464231
   4.56608     -5.419905
   4.58098     -5.374766
   4.59587     -5.328828
   4.61077     -5.282092
   4.62566     -5.234690
   4.64056     -5.204459
   4.65545     -5.155478
   4.67035     -5.105835
   4.68524     -5.055546
   4.70014     -5.004672
   4.71503     -4.953215
   4.72993     -4.901224
   4.74483     -4.848751
   4.75972     -4.795826
   4.77462     -4.742501
   4.78951     -4.688807
   4.80441     -4.634797
   4.81930     -4.580494
   4.83420     -4.525966
   4.84909     -4.471294
   4.86399     -4.416466
   4.87888     -4.361616
   4.89378     -4.306743
   4.90867     -4.251931
   4.92357     -4.197265
   4.93847     -4.142770
   4.95336     -4.088538
   4.96826     -4.034632
   4.98315     -3.981145
   4.99805     -3.928133
   5.01294     -3.875676
   5.02784     -3.823851
   5.04273     -3.772713
   5.05763     -3.722391
   5.07252     -3.672981
   5.08742     -3.624547
   5.10232     -3.577182
   5.11721     -3.530977
   5.13211     -3.486020
   5.14700     -3.442391
   5.16190     -3.400182
   5.17679     -3.359476
   5.19169     -3.320346
   5.20658     -3.282876
   5.22148     -3.247126
   5.23637     -3.213129
   5.25127     -3.180907
   5.26616     -3.150444
   5.28106     -3.121670
   5.29596     -3.094471
   5.31085     -3.068680
   5.32575     -3.044232
   5.34064     -3.021283
   5.35554     -3.000333
   5.37043     -2.982093
   5.38533     -2.967256
   5.40022     -2.956334
   5.41512     -2.949667
   5.43001     -2.947426
 
 
# Band-Index    8
   5.43001     -2.940769
   5.41512     -2.943000
   5.40022     -2.949636
   5.38533     -2.960518
   5.37043     -2.975318
   5.35554     -2.993537
   5.34064     -3.014451
   5.32575     -3.037294
   5.31085     -3.061523
   5.29596     -3.086995
   5.28106     -3.113851
   5.26616     -3.142255
   5.25127     -3.172352
   5.23637     -3.204216
   5.22148     -3.237860
   5.20658     -3.273264
   5.19169     -3.310398
   5.17679     -3.349208
   5.16190     -3.389585
   5.14700     -3.431472
   5.13211     -3.474784
   5.11721     -3.519426
   5.10232     -3.565314
   5.08742     -3.612386
   5.07252     -3.660543
   5.05763     -3.709666
   5.04273     -3.759676
   5.02784     -3.810529
   5.01294     -3.862122
   4.99805     -3.914345
   4.98315     -3.967131
   4.96826     -4.020388
   4.95336     -4.074083
   4.93847     -4.128086
   4.92357     -4.182351
   4.90867     -4.236798
   4.89378     -4.291384
   4.87888     -4.346031
   4.86399     -4.400669
   4.84909     -4.455289
   4.83420     -4.509776
   4.81930     -4.564113
   4.80441     -4.618235
   4.78951     -4.672082
   4.77462     -4.725619
   4.75972     -4.778791
   4.74483     -4.831572
   4.72993     -4.883907
   4.71503     -4.935755
   4.70014     -4.987096
   4.68524     -5.037849
   4.67035     -5.088039
   4.65545     -5.137566
   4.64056     -5.186418
   4.62566     -5.228273
   4.61077     -5.155951
   4.59587     -5.082479
   4.58098     -5.008016
   4.56608     -4.932584
   4.55119     -4.856212
   4.53629     -4.778935
   4.52139     -4.700789
   4.50650     -4.621803
   4.49160     -4.542045
   4.47671     -4.461552
   4.46181     -4.380373
   4.44692     -4.298573
   4.43202     -4.216188
   4.41713     -4.133315
   4.40223     -4.050011
   4.38734     -3.966367
   4.37244     -3.882468
   4.35755     -3.798405
   4.34265     -3.714285
   4.32775     -3.630250
   4.31286     -3.546425
   4.29796     -3.462954
   4.28307     -3.379991
   4.26817     -3.297738
   4.25328     -3.216380
   4.23838     -3.136142
   4.22349     -3.057279
   4.20859     -2.980048
   4.19370     -2.904760
   4.17880     -2.831737
   4.16391     -2.761329
   4.14901     -2.693918
   4.13411     -2.629896
   4.11922     -2.569702
   4.10432     -2.513754
   4.08943     -2.462457
   4.07453     -2.416232
   4.05964     -2.375410
   4.04474     -2.340246
   4.02985     -2.310891
   4.01495     -2.287371
   4.00006     -2.269554
   3.98516     -2.257176
   3.97026     -2.249929
   3.95537     -2.247553
   3.95537     -2.247553
   3.93262     -2.248948
   3.90986     -2.253246
   3.88711     -2.260710
   3.86436     -2.271684
   3.84160     -2.286454
   3.81885     -2.305198
   3.79610     -2.327951
   3.77334     -2.354588
   3.75059     -2.384905
   3.72784     -2.418605
   3.70508     -2.455331
   3.68233     -2.494690
   3.65958     -2.536269
   3.63683     -2.579683
   3.61407     -2.624522
   3.59132     -2.670412
   3.56857     -2.716999
   3.54581     -2.763969
   3.52306     -2.810999
   3.50031     -2.857821
   3.47755     -2.904164
   3.45480     -2.949819
   3.43205     -2.994558
   3.40929     -3.038198
   3.38654     -3.080565
   3.36379     -3.121510
   3.34103     -3.160897
   3.31828     -3.198578
   3.29553     -3.234459
   3.27277     -3.268442
   3.25002     -3.300419
   3.22727     -3.330313
   3.20452     -3.358057
   3.18176     -3.383577
   3.15901     -3.406817
   3.13626     -3.427719
   3.11350     -3.446243
   3.09075     -3.462346
   3.06800     -3.475976
   3.04524     -3.487115
   3.02249     -3.495738
   2.99974     -3.501821
   2.97698     -3.505328
   2.95423     -3.506257
   2.93148     -3.504575
   2.90872     -3.500283
   2.88597     -3.493364
   2.86322     -3.483822
   2.84046     -3.471643
   2.81771     -3.456836
   2.79496     -3.439393
   2.77220     -3.419320
   2.74945     -3.396611
   2.72670     -3.371279
   2.70395     -3.343342
   2.68119     -3.312808
   2.65844     -3.279673
   2.63569     -3.243963
   2.61293     -3.205696
   2.59018     -3.164883
   2.56743     -3.121534
   2.54467     -3.075685
   2.52192     -3.027355
   2.49917     -2.976560
   2.47641     -2.923313
   2.45366     -2.867660
   2.43091     -2.809622
   2.40815     -2.749224
   2.38540     -2.686481
   2.36265     -2.621441
   2.33989     -2.554132
   2.31714     -2.484585
   2.29439     -2.412809
   2.27164     -2.338867
   2.24888     -2.262781
   2.22613     -2.184583
   2.20338     -2.104311
   2.18062     -2.021990
   2.15787     -1.937663
   2.13512     -1.851358
   2.11236     -1.763112
   2.08961     -1.672956
   2.06686     -1.580935
   2.04410     -1.487074
   2.02135     -1.391408
   1.99860     -1.293979
   1.97584     -1.194830
   1.95309     -1.093993
   1.93034     -0.991518
   1.90758     -0.887472
   1.88483     -0.781928
   1.86208     -0.675003
   1.83933     -0.566865
   1.81657     -0.457822
   1.79382     -0.348454
   1.77107     -0.240012
   1.74831     -0.135800
   1.72556     -0.046418
   1.70281     -0.006348
   1.70281     -0.006348
   1.68561     -0.021192
   1.66841     -0.076855
   1.65121     -0.152179
   1.63401     -0.236894
   1.61681     -0.327105
   1.59961     -0.421136
   1.58241     -0.518081
   1.56521     -0.617446
   1.54801     -0.718881
   1.53081     -0.822103
   1.51361     -0.926908
   1.49641     -1.033104
   1.47921     -1.140524
   1.46201     -1.249015
   1.44481     -1.358440
   1.42761     -1.468648
   1.41041     -1.579513
   1.39321     -1.690920
   1.37601     -1.802745
   1.35880     -1.914878
   1.34160     -2.027225
   1.32440     -2.139661
   1.30720     -2.252097
   1.29000     -2.364443
   1.27280     -2.476607
   1.25560     -2.588506
   1.23840     -2.700081
   1.22120     -2.811214
   1.20400     -2.921843
   1.18680     -3.031909
   1.16960     -3.141330
   1.15240     -3.250046
   1.13520     -3.358004
   1.11800     -3.465150
   1.10080     -3.571410
   1.08360     -3.676746
   1.06640     -3.781107
   1.04920     -3.884434
   1.03200     -3.986689
   1.01480     -4.087833
   0.99760     -4.187827
   0.98040     -4.286620
   0.96320     -4.384182
   0.94600     -4.480486
   0.92880     -4.575481
   0.91160     -4.669150
   0.89440     -4.761444
   0.87720     -4.852348
   0.86000     -4.941829
   0.84280     -5.029875
   0.82560     -5.116432
   0.80840     -5.201499
   0.79120     -5.285044
   0.77400     -5.367045
   0.75680     -5.447482
   0.73960     -5.526332
   0.72240     -5.575537
   0.70520     -5.472887
   0.68800     -5.371077
   0.67080     -5.270200
   0.65360     -5.170319
   0.63640     -5.071525
   0.61920     -4.973909
   0.60200     -4.877560
   0.58480     -4.782532
   0.56760     -4.688920
   0.55040     -4.596842
   0.53320     -4.506366
   0.51600     -4.417602
   0.49880     -4.330638
   0.48160     -4.245553
   0.46440     -4.162434
   0.44720     -4.081369
   0.43000     -4.002461
   0.41280     -3.925777
   0.39560     -3.851413
   0.37840     -3.779450
   0.36120     -3.709984
   0.34400     -3.643086
   0.32680     -3.578842
   0.30960     -3.517316
   0.29240     -3.458598
   0.27520     -3.402758
   0.25800     -3.349849
   0.24080     -3.299948
   0.22360     -3.253108
   0.20640     -3.209359
   0.18920     -3.168746
   0.17200     -3.131313
   0.15480     -3.097072
   0.13760     -3.066031
   0.12040     -3.038221
   0.10320     -3.013635
   0.08600     -2.992323
   0.06880     -2.974385
   0.05160     -2.960013
   0.03440     -2.949445
   0.01720     -2.942959
   0.00000     -2.940769
 
 
# Band-Index    9
   0.00000      3.357216
   0.01720      3.358302
   0.03440      3.361558
   0.05160      3.366985
   0.06880      3.374583
   0.08600      3.384352
   0.10320      3.396292
   0.12040      3.410404
   0.13760      3.426687
   0.15480      3.445141
   0.17200      3.465768
   0.18920      3.488567
   0.20640      3.513538
   0.22360      3.540682
   0.24080      3.569999
   0.25800      3.601488
   0.27520      3.635151
   0.29240      3.670985
   0.30960      3.708993
   0.32680      3.749172
   0.34400      3.791523
   0.36120      3.836046
   0.37840      3.882740
   0.39560      3.931605
   0.41280      3.982640
   0.43000      4.035844
   0.44720      4.091216
   0.46440      4.148756
   0.48160      4.208461
   0.49880      4.270331
   0.51600      4.334365
   0.53320      4.400560
   0.55040      4.468914
   0.56760      4.539427
   0.58480      4.612095
   0.60200      4.686917
   0.61920      4.763891
   0.63640      4.843013
   0.65360      4.924281
   0.67080      5.007691
   0.68800      5.093241
   0.70520      5.180927
   0.72240      5.270744
   0.73960      5.362690
   0.75680      5.456757
   0.77400      5.552942
   0.79120      5.651237
   0.80840      5.751630
   0.82560      5.854106
   0.84280      5.958615
   0.86000      6.064861
   0.87720      6.086044
   0.89440      5.934186
   0.91160      5.781541
   0.92880      5.629103
   0.94600      5.477009
   0.96320      5.325351
   0.98040      5.174199
   0.99760      5.023616
   1.01480      4.873664
   1.03200      4.724403
   1.04920      4.575884
   1.06640      4.428169
   1.08360      4.281301
   1.10080      4.135331
   1.11800      3.990305
   1.13520      3.846270
   1.15240      3.703261
   1.16960      3.561323
   1.18680      3.420504
   1.20400      3.280831
   1.22120      3.142350
   1.23840      3.005089
   1.25560      2.869081
   1.27280      2.734361
   1.29000      2.600957
   1.30720      2.468903
   1.32440      2.338231
   1.34160      2.208968
   1.35880      2.081137
   1.37601      1.954775
   1.39321      1.829904
   1.41041      1.706541
   1.42761      1.584736
   1.44481      1.464508
   1.46201      1.345882
   1.47921      1.228893
   1.49641      1.113581
   1.51361      0.999982
   1.53081      0.888148
   1.54801      0.778147
   1.56521      0.670065
   1.58241      0.564033
   1.59961      0.460245
   1.61681      0.359053
   1.63401      0.261091
   1.65121      0.167743
   1.66841      0.082521
   1.68561      0.015924
   1.70281     -0.004941
   1.70281     -0.004941
   1.72556      0.043856
   1.74831      0.146521
   1.77107      0.261473
   1.79382      0.378007
   1.81657      0.492868
   1.83933      0.604641
   1.86208      0.712547
   1.88483      0.816117
   1.90758      0.915088
   1.93034      1.009425
   1.95309      1.099268
   1.97584      1.184899
   1.99860      1.266679
   2.02135      1.344997
   2.04410      1.420231
   2.06686      1.492744
   2.08961      1.562860
   2.11236      1.630886
   2.13512      1.697108
   2.15787      1.761770
   2.18062      1.825115
   2.20338      1.887358
   2.22613      1.948706
   2.24888      2.009342
   2.27164      2.069437
   2.29439      2.129139
   2.31714      2.188590
   2.33989      2.247912
   2.36265      2.307215
   2.38540      2.366587
   2.40815      2.426100
   2.43091      2.485817
   2.45366      2.545782
   2.47641      2.606018
   2.49917      2.666541
   2.52192      2.727342
   2.54467      2.788399
   2.56743      2.849670
   2.59018      2.911099
   2.61293      2.972611
   2.63569      3.034108
   2.65844      3.095480
   2.68119      3.156592
   2.70395      3.217290
   2.72670      3.277397
   2.74945      3.336714
   2.77220      3.395021
   2.79496      3.452070
   2.81771      3.507593
   2.84046      3.561288
   2.86322      3.612841
   2.88597      3.661901
   2.90872      3.708095
   2.93148      3.751027
   2.95423      3.790270
   2.97698      3.825386
   2.99974      3.855904
   3.02249      3.881351
   3.04524      3.901232
   3.06800      3.915057
   3.09075      3.922339
   3.11350      3.922614
   3.13626      3.915458
   3.15901      3.900509
   3.18176      3.877514
   3.20452      3.846340
   3.22727      3.807000
   3.25002      3.759674
   3.27277      3.704685
   3.29553      3.642476
   3.31828      3.573582
   3.34103      3.498603
   3.36379      3.418177
   3.38654      3.332964
   3.40929      3.243643
   3.43205      3.150884
   3.45480      3.055369
   3.47755      2.957769
   3.50031      2.858755
   3.52306      2.758997
   3.54581      2.659154
   3.56857      2.559886
   3.59132      2.461850
   3.61407      2.365710
   3.63683      2.272118
   3.65958      2.181726
   3.68233      2.095178
   3.70508      2.013119
   3.72784      1.936163
   3.75059      1.864900
   3.77334      1.799885
   3.79610      1.741608
   3.81885      1.690502
   3.84160      1.646898
   3.86436      1.611045
   3.88711      1.583097
   3.90986      1.563123
   3.93262      1.551147
   3.95537      1.547155
   3.95537      1.547155
   3.97026      1.551259
   3.98516      1.563584
   4.00006      1.584161
   4.01495      1.613014
   4.02985      1.650109
   4.04474      1.695349
   4.05964      1.748542
   4.07453      1.809414
   4.08943      1.877617
   4.10432      1.952754
   4.11922      2.034398
   4.13411      2.122104
   4.14901      2.215420
   4.16391      2.313916
   4.17880      2.417173
   4.19370      2.524796
   4.20859      2.636410
   4.22349      2.751674
   4.23838      2.870274
   4.25328      2.991913
   4.26817      3.116324
   4.28307      3.243265
   4.29796      3.372498
   4.31286      3.503819
   4.32775      3.637033
   4.34265      3.771958
   4.35755      3.908423
   4.37244      4.046269
   4.38734      4.185343
   4.40223      4.325494
   4.41713      4.466579
   4.43202      4.608454
   4.44692      4.750973
   4.46181      4.893978
   4.47671      5.037295
   4.49160      5.180720
   4.50650      5.323987
   4.52139      5.466717
   4.53629      5.608295
   4.55119      5.747527
   4.56608      5.881416
   4.58098      5.976343
   4.59587      5.897710
   4.61077      5.809451
   4.62566      5.722057
   4.64056      5.636010
   4.65545      5.551428
   4.67035      5.468356
   4.68524      5.386823
   4.70014      5.306841
   4.71503      5.228423
   4.72993      5.151575
   4.74483      5.076305
   4.75972      5.002618
   4.77462      4.930519
   4.78951      4.860010
   4.80441      4.791097
   4.81930      4.723781
   4.83420      4.658066
   4.84909      4.593954
   4.86399      4.531447
   4.87888      4.470548
   4.89378      4.411259
   4.90867      4.353580
   4.92357      4.297515
   4.93847      4.243065
   4.95336      4.190230
   4.96826      4.139014
   4.98315      4.089416
   4.99805      4.041437
   5.01294      3.995080
   5.02784      3.950345
   5.04273      3.907232
   5.05763      3.865742
   5.07252      3.825877
   5.08742      3.787637
   5.10232      3.751023
   5.11721      3.716034
   5.13211      3.682671
   5.14700      3.650936
   5.16190      3.620828
   5.17679      3.592347
   5.19169      3.565494
   5.20658      3.540269
   5.22148      3.516672
   5.23637      3.494703
   5.25127      3.474362
   5.26616      3.455649
   5.28106      3.438564
   5.29596      3.423106
   5.31085      3.409277
   5.32575      3.397074
   5.34064      3.386499
   5.35554      3.377551
   5.37043      3.370231
   5.38533      3.364537
   5.40022      3.360470
   5.41512      3.358030
   5.43001      3.357216
 
 
# Band-Index   10
   5.43001      3.731090
   5.41512      3.731916
   5.40022      3.734395
   5.38533      3.738526
   5.37043      3.744309
   5.35554      3.751744
   5.34064      3.760831
   5.32575      3.771571
   5.31085      3.783962
   5.29596      3.798005
   5.28106      3.813700
   5.26616      3.831046
   5.25127      3.850044
   5.23637      3.870692
   5.22148      3.892991
   5.20658      3.916940
   5.19169      3.942538
   5.17679      3.969786
   5.16190      3.998683
   5.14700      4.029227
   5.13211      4.061419
   5.11721      4.095258
   5.10232      4.130742
   5.08742      4.167871
   5.07252      4.206644
   5.05763      4.247059
   5.04273      4.289116
   5.02784      4.332812
   5.01294      4.378146
   4.99805      4.425117
   4.98315      4.473722
   4.96826      4.523959
   4.95336      4.575826
   4.93847      4.629319
   4.92357      4.684434
   4.90867      4.741169
   4.89378      4.799517
   4.87888      4.859475
   4.86399      4.921035
   4.84909      4.984189
   4.83420      5.048929
   4.81930      5.115243
   4.80441      5.183114
   4.78951      5.252525
   4.77462      5.323449
   4.75972      5.395853
   4.74483      5.469691
   4.72993      5.544897
   4.71503      5.621369
   4.70014      5.698947
   4.68524      5.777388
   4.67035      5.856222
   4.65545      5.934564
   4.64056      6.010355
   4.62566      6.078298
   4.61077      6.121729
   4.59587      6.101848
   4.58098      6.021404
   4.56608      6.083104
   4.55119      6.092970
   4.53629      5.960590
   4.52139      5.824158
   4.50650      5.686855
   4.49160      5.549223
   4.47671      5.411521
   4.46181      5.273926
   4.44692      5.136574
   4.43202      4.999581
   4.41713      4.863060
   4.40223      4.727121
   4.38734      4.591868
   4.37244      4.457414
   4.35755      4.323875
   4.34265      4.191366
   4.32775      4.060009
   4.31286      3.929937
   4.29796      3.801288
   4.28307      3.674210
   4.26817      3.548859
   4.25328      3.425422
   4.23838      3.304085
   4.22349      3.185052
   4.20859      3.068558
   4.19370      2.954851
   4.17880      2.844211
   4.16391      2.736947
   4.14901      2.633409
   4.13411      2.533978
   4.11922      2.439077
   4.10432      2.349177
   4.08943      2.264805
   4.07453      2.186533
   4.05964      2.114987
   4.04474      2.050833
   4.02985      1.994798
   4.01495      1.947607
   4.00006      1.909969
   3.98516      1.882540
   3.97026      1.865847
   3.95537      1.860241
   3.95537      1.860241
   3.93262      1.865495
   3.90986      1.881131
   3.88711      1.906826
   3.86436      1.942053
   3.84160      1.986166
   3.81885      2.038426
   3.79610      2.098061
   3.77334      2.164293
   3.75059      2.236343
   3.72784      2.313460
   3.70508      2.394914
   3.68233      2.480000
   3.65958      2.568043
   3.63683      2.658385
   3.61407      2.750397
   3.59132      2.843461
   3.56857      2.936982
   3.54581      3.030365
   3.52306      3.123041
   3.50031      3.214449
   3.47755      3.304055
   3.45480      3.391321
   3.43205      3.475749
   3.40929      3.556867
   3.38654      3.634237
   3.36379      3.707460
   3.34103      3.776193
   3.31828      3.840154
   3.29553      3.899118
   3.27277      3.952918
   3.25002      4.001441
   3.22727      4.044604
   3.20452      4.082340
   3.18176      4.114576
   3.15901      4.141235
   3.13626      4.162234
   3.11350      4.177495
   3.09075      4.186979
   3.06800      4.190692
   3.04524      4.188703
   3.02249      4.181139
   2.99974      4.168186
   2.97698      4.150081
   2.95423      4.127096
   2.93148      4.099538
   2.90872      4.067731
   2.88597      4.032002
   2.86322      3.992692
   2.84046      3.950125
   2.81771      3.904622
   2.79496      3.856485
   2.77220      3.806005
   2.74945      3.753452
   2.72670      3.699072
   2.70395      3.643092
   2.68119      3.585717
   2.65844      3.527134
   2.63569      3.467497
   2.61293      3.406952
   2.59018      3.345618
   2.56743      3.283592
   2.54467      3.220952
   2.52192      3.157760
   2.49917      3.094055
   2.47641      3.029860
   2.45366      2.965180
   2.43091      2.900005
   2.40815      2.834302
   2.38540      2.768031
   2.36265      2.701135
   2.33989      2.633535
   2.31714      2.565151
   2.29439      2.495881
   2.27164      2.425623
   2.24888      2.354258
   2.22613      2.281665
   2.20338      2.207715
   2.18062      2.132288
   2.15787      2.055255
   2.13512      1.976501
   2.11236      1.895925
   2.08961      1.813446
   2.06686      1.729005
   2.04410      1.642578
   2.02135      1.554197
   1.99860      1.463940
   1.97584      1.371939
   1.95309      1.278374
   1.93034      1.183461
   1.90758      1.087382
   1.88483      0.990274
   1.86208      0.892193
   1.83933      0.793181
   1.81657      0.693324
   1.79382      0.592971
   1.77107      0.493195
   1.74831      0.397110
   1.72556      0.315225
   1.70281      0.282337
   1.70281      0.282337
   1.68561      0.305370
   1.66841      0.368668
   1.65121      0.450850
   1.63401      0.541876
   1.61681      0.637952
   1.59961      0.737509
   1.58241      0.839807
   1.56521      0.944432
   1.54801      1.051157
   1.53081      1.159831
   1.51361      1.270348
   1.49641      1.382628
   1.47921      1.496618
   1.46201      1.612272
   1.44481      1.729548
   1.42761      1.848405
   1.41041      1.968822
   1.39321      2.090769
   1.37601      2.214202
   1.35880      2.339101
   1.34160      2.465439
   1.32440      2.593181
   1.30720      2.722306
   1.29000      2.852776
   1.27280      2.984563
   1.25560      3.117633
   1.23840      3.251957
   1.22120      3.387500
   1.20400      3.524228
   1.18680      3.662110
   1.16960      3.801102
   1.15240      3.941169
   1.13520      4.082271
   1.11800      4.224361
   1.10080      4.367403
   1.08360      4.511345
   1.06640      4.656143
   1.04920      4.801748
   1.03200      4.948111
   1.01480      5.095175
   0.99760      5.242885
   0.98040      5.391180
   0.96320      5.539998
   0.94600      5.689274
   0.92880      5.838934
   0.91160      5.988890
   0.89440      6.139017
   0.87720      6.176046
   0.86000      6.241612
   0.84280      6.359849
   0.82560      6.255526
   0.80840      6.152487
   0.79120      6.051398
   0.77400      5.952349
   0.75680      5.855376
   0.73960      5.760493
   0.72240      5.667718
   0.70520      5.577058
   0.68800      5.488524
   0.67080      5.402122
   0.65360      5.317859
   0.63640      5.235741
   0.61920      5.155774
   0.60200      5.077960
   0.58480      5.002305
   0.56760      4.928815
   0.55040      4.857491
   0.53320      4.788337
   0.51600      4.721357
   0.49880      4.656553
   0.48160      4.593928
   0.46440      4.533484
   0.44720      4.475223
   0.43000      4.419148
   0.41280      4.365260
   0.39560      4.313562
   0.37840      4.264054
   0.36120      4.216739
   0.34400      4.171617
   0.32680      4.128690
   0.30960      4.087960
   0.29240      4.049426
   0.27520      4.013090
   0.25800      3.978952
   0.24080      3.947014
   0.22360      3.917276
   0.20640      3.889739
   0.18920      3.864403
   0.17200      3.841269
   0.15480      3.820337
   0.13760      3.801608
   0.12040      3.785081
   0.10320      3.770758
   0.08600      3.758637
   0.06880      3.748721
   0.05160      3.741007
   0.03440      3.735498
   0.01720      3.732192
   0.00000      3.731090
 
 
# Band-Index   11
   0.00000      4.187097
   0.01720      4.188224
   0.03440      4.191604
   0.05160      4.197238
   0.06880      4.205125
   0.08600      4.215267
   0.10320      4.227661
   0.12040      4.242309
   0.13760      4.259211
   0.15480      4.278367
   0.17200      4.299776
   0.18920      4.323438
   0.20640      4.349354
   0.22360      4.377524
   0.24080      4.407948
   0.25800      4.440625
   0.27520      4.475555
   0.29240      4.512739
   0.30960      4.552177
   0.32680      4.593868
   0.34400      4.637809
   0.36120      4.684007
   0.37840      4.732460
   0.39560      4.783166
   0.41280      4.836125
   0.43000      4.891339
   0.44720      4.948805
   0.46440      5.008529
   0.48160      5.070503
   0.49880      5.134730
   0.51600      5.201211
   0.53320      5.269945
   0.55040      5.340933
   0.56760      5.414175
   0.58480      5.489670
   0.60200      5.567439
   0.61920      5.647440
   0.63640      5.729696
   0.65360      5.814204
   0.67080      5.900966
   0.68800      5.989982
   0.70520      6.081251
   0.72240      6.174776
   0.73960      6.270553
   0.75680      6.368586
   0.77400      6.468841
   0.79120      6.571376
   0.80840      6.676149
   0.82560      6.547686
   0.84280      6.394825
   0.86000      6.432156
   0.87720      6.289017
   0.89440      6.285761
   0.91160      6.398541
   0.92880      6.513490
   0.94600      6.630524
   0.96320      6.749614
   0.98040      6.870744
   0.99760      6.993897
   1.01480      7.119060
   1.03200      7.246216
   1.04920      7.375351
   1.06640      7.506448
   1.08360      7.639488
   1.10080      7.774448
   1.11800      7.911307
   1.13520      8.050039
   1.15240      8.190615
   1.16960      8.333005
   1.18680      8.477173
   1.20400      8.623081
   1.22120      8.770682
   1.23840      8.919925
   1.25560      9.070754
   1.27280      9.223099
   1.29000      9.376882
   1.30720      9.532011
   1.32440      9.688369
   1.34160      9.845818
   1.35880     10.004172
   1.37601     10.163156
   1.39321     10.322304
   1.41041     10.461807
   1.42761     10.524952
   1.44481     10.572265
   1.46201     10.604517
   1.47921     10.623419
   1.49641     10.631252
   1.51361     10.630468
   1.53081     10.623396
   1.54801     10.612078
   1.56521     10.598243
   1.58241     10.583300
   1.59961     10.568396
   1.61681     10.554458
   1.63401     10.542225
   1.65121     10.532291
   1.66841     10.525120
   1.68561     10.521036
   1.70281     10.520149
   1.70281     10.520149
   1.72556     10.521711
   1.74831     10.529711
   1.77107     10.544153
   1.79382     10.564875
   1.81657     10.591547
   1.83933     10.623622
   1.86208     10.660285
   1.88483     10.700358
   1.90758     10.742169
   1.93034     10.783387
   1.95309     10.820769
   1.97584     10.849840
   1.99860     10.864197
   2.02135     10.853442
   2.04410     10.797496
   2.06686     10.674223
   2.08961     10.500965
   2.11236     10.305835
   2.13512     10.102558
   2.15787      9.897333
   2.18062      9.693410
   2.20338      9.492807
   2.22613      9.296981
   2.24888      9.107097
   2.27164      8.924159
   2.29439      8.749070
   2.31714      8.582675
   2.33989      8.425777
   2.36265      8.279143
   2.38540      8.143495
   2.40815      8.019537
   2.43091      7.907926
   2.45366      7.809275
   2.47641      7.724164
   2.49917      7.653097
   2.52192      7.596510
   2.54467      7.554765
   2.56743      7.528133
   2.59018      7.516784
   2.61293      7.520792
   2.63569      7.540094
   2.65844      7.574498
   2.68119      7.623615
   2.70395      7.686764
   2.72670      7.762577
   2.74945      7.847316
   2.77220      7.925847
   2.79496      7.960691
   2.81771      7.958592
   2.84046      7.945217
   2.86322      7.929701
   2.88597      7.915139
   2.90872      7.902793
   2.93148      7.893268
   2.95423      7.886886
   2.97698      7.883834
   2.99974      7.884226
   3.02249      7.888138
   3.04524      7.895622
   3.06800      7.906713
   3.09075      7.921436
   3.11350      7.939808
   3.13626      7.961841
   3.15901      7.987544
   3.18176      8.016920
   3.20452      8.049970
   3.22727      8.086691
   3.25002      8.127080
   3.27277      8.171123
   3.29553      8.218809
   3.31828      8.270117
   3.34103      8.325016
   3.36379      8.383462
   3.38654      8.445387
   3.40929      8.510688
   3.43205      8.579178
   3.45480      8.650502
   3.47755      8.723878
   3.50031      8.797169
   3.52306      8.861814
   3.54581      8.859325
   3.56857      8.736157
   3.59132      8.595363
   3.61407      8.457066
   3.63683      8.324302
   3.65958      8.198197
   3.68233      8.079412
   3.70508      7.968456
   3.72784      7.865752
   3.75059      7.771665
   3.77334      7.686538
   3.79610      7.610674
   3.81885      7.544345
   3.84160      7.487793
   3.86436      7.441229
   3.88711      7.404830
   3.90986      7.378728
   3.93262      7.363031
   3.95537      7.357790
   3.95537      7.357790
   3.97026      7.358110
   3.98516      7.359066
   4.00006      7.360655
   4.01495      7.362884
   4.02985      7.365740
   4.04474      7.369229
   4.05964      7.373346
   4.07453      7.378080
   4.08943      7.383427
   4.10432      7.389377
   4.11922      7.395920
   4.13411      7.403052
   4.14901      7.410756
   4.16391      7.419017
   4.17880      7.427815
   4.19370      7.437127
   4.20859      7.446913
   4.22349      7.457136
   4.23838      7.467730
   4.25328      7.478598
   4.26817      7.489603
   4.28307      7.500487
   4.29796      7.510724
   4.31286      7.519113
   4.32775      7.522205
   4.34265      7.508916
   4.35755      7.460063
   4.37244      7.379562
   4.38734      7.284382
   4.40223      7.183356
   4.41713      7.080137
   4.43202      6.976369
   4.44692      6.872875
   4.46181      6.770105
   4.47671      6.668336
   4.49160      6.567750
   4.50650      6.468484
   4.52139      6.370690
   4.53629      6.274682
   4.55119      6.183132
   4.56608      6.232881
   4.58098      6.349926
   4.59587      6.403295
   4.61077      6.452303
   4.62566      6.552466
   4.64056      6.560751
   4.65545      6.472043
   4.67035      6.385014
   4.68524      6.299673
   4.70014      6.216031
   4.71503      6.134090
   4.72993      6.053810
   4.74483      5.975223
   4.75972      5.898326
   4.77462      5.823121
   4.78951      5.749605
   4.80441      5.677778
   4.81930      5.607641
   4.83420      5.539173
   4.84909      5.472416
   4.86399      5.407348
   4.87888      5.343970
   4.89378      5.282283
   4.90867      5.222285
   4.92357      5.163977
   4.93847      5.107358
   4.95336      5.052431
   4.96826      4.999189
   4.98315      4.947641
   4.99805      4.897783
   5.01294      4.849615
   5.02784      4.803137
   5.04273      4.758349
   5.05763      4.715251
   5.07252      4.673843
   5.08742      4.634125
   5.10232      4.596103
   5.11721      4.559765
   5.13211      4.525118
   5.14700      4.492156
   5.16190      4.460894
   5.17679      4.431312
   5.19169      4.403431
   5.20658      4.377234
   5.22148      4.352727
   5.23637      4.329911
   5.25127      4.308778
   5.26616      4.289348
   5.28106      4.271602
   5.29596      4.255546
   5.31085      4.241180
   5.32575      4.228504
   5.34064      4.217519
   5.35554      4.208223
   5.37043      4.200618
   5.38533      4.194702
   5.40022      4.190477
   5.41512      4.187942
   5.43001      4.187097
 
 
# Band-Index   12
   5.43001      4.271514
   5.41512      4.272358
   5.40022      4.274891
   5.38533      4.279113
   5.37043      4.285024
   5.35554      4.292624
   5.34064      4.301912
   5.32575      4.312890
   5.31085      4.325556
   5.29596      4.339911
   5.28106      4.355955
   5.26616      4.373688
   5.25127      4.393114
   5.23637      4.414219
   5.22148      4.437018
   5.20658      4.461506
   5.19169      4.487683
   5.17679      4.515549
   5.16190      4.545102
   5.14700      4.576346
   5.13211      4.609277
   5.11721      4.643897
   5.10232      4.680206
   5.08742      4.718202
   5.07252      4.757889
   5.05763      4.799263
   5.04273      4.842326
   5.02784      4.887077
   5.01294      4.933517
   4.99805      4.981645
   4.98315      5.031462
   4.96826      5.082967
   4.95336      5.136160
   4.93847      5.191040
   4.92357      5.247608
   4.90867      5.305864
   4.89378      5.365808
   4.87888      5.427438
   4.86399      5.490754
   4.84909      5.555757
   4.83420      5.622447
   4.81930      5.690825
   4.80441      5.760882
   4.78951      5.832623
   4.77462      5.906047
   4.75972      5.981146
   4.74483      6.057922
   4.72993      6.136367
   4.71503      6.216467
   4.70014      6.298203
   4.68524      6.381541
   4.67035      6.466380
   4.65545      6.551998
   4.64056      6.630170
   4.62566      6.653333
   4.61077      6.665145
   4.59587      6.547553
   4.58098      6.504881
   4.56608      6.559021
   4.55119      6.638854
   4.53629      6.727459
   4.52139      6.820682
   4.50650      6.916947
   4.49160      7.015459
   4.47671      7.115662
   4.46181      7.216976
   4.44692      7.318457
   4.43202      7.417917
   4.41713      7.508996
   4.40223      7.573030
   4.38734      7.596157
   4.37244      7.599511
   4.35755      7.601199
   4.34265      7.612750
   4.32775      7.629808
   4.31286      7.638337
   4.29796      7.638523
   4.28307      7.634134
   4.26817      7.627429
   4.25328      7.619595
   4.23838      7.611249
   4.22349      7.602739
   4.20859      7.594283
   4.19370      7.586020
   4.17880      7.578040
   4.16391      7.570408
   4.14901      7.563190
   4.13411      7.556414
   4.11922      7.550109
   4.10432      7.544294
   4.08943      7.538991
   4.07453      7.534213
   4.05964      7.529974
   4.04474      7.526268
   4.02985      7.523131
   4.01495      7.520557
   4.00006      7.518549
   3.98516      7.517123
   3.97026      7.516261
   3.95537      7.515974
   3.95537      7.515974
   3.93262      7.521244
   3.90986      7.537021
   3.88711      7.563270
   3.86436      7.599878
   3.84160      7.646722
   3.81885      7.703620
   3.79610      7.770365
   3.77334      7.846723
   3.75059      7.932415
   3.72784      8.027138
   3.70508      8.130530
   3.68233      8.242175
   3.65958      8.361572
   3.63683      8.488008
   3.61407      8.620296
   3.59132      8.755615
   3.56857      8.883385
   3.54581      8.964220
   3.52306      9.062497
   3.50031      9.161722
   3.47755      9.133012
   3.45480      9.063231
   3.43205      8.990029
   3.40929      8.918640
   3.38654      8.850358
   3.36379      8.785668
   3.34103      8.724807
   3.31828      8.667910
   3.29553      8.615067
   3.27277      8.566336
   3.25002      8.521755
   3.22727      8.481346
   3.20452      8.445115
   3.18176      8.413056
   3.15901      8.385147
   3.13626      8.361356
   3.11350      8.341640
   3.09075      8.325948
   3.06800      8.314213
   3.04524      8.306364
   3.02249      8.302324
   2.99974      8.301994
   2.97698      8.305251
   2.95423      8.311919
   2.93148      8.321703
   2.90872      8.333989
   2.88597      8.347126
   2.86322      8.354764
   2.84046      8.325320
   2.81771      8.225322
   2.79496      8.113524
   2.77220      8.026350
   2.74945      7.959035
   2.72670      7.887745
   2.70395      7.819036
   2.68119      7.759864
   2.65844      7.713290
   2.63569      7.680727
   2.61293      7.662924
   2.59018      7.660252
   2.56743      7.672878
   2.54467      7.700803
   2.52192      7.743909
   2.49917      7.801970
   2.47641      7.874664
   2.45366      7.961587
   2.43091      8.062281
   2.40815      8.176211
   2.38540      8.302812
   2.36265      8.441471
   2.33989      8.591532
   2.31714      8.752325
   2.29439      8.923136
   2.27164      9.103208
   2.24888      9.291714
   2.22613      9.487728
   2.20338      9.690091
   2.18062      9.897174
   2.15787     10.106292
   2.13512     10.312269
   2.11236     10.505363
   2.08961     10.673519
   2.06686     10.816559
   2.04410     10.940416
   2.02135     11.028461
   1.99860     11.028660
   1.97584     10.984380
   1.95309     10.928470
   1.93034     10.870091
   1.90758     10.812787
   1.88483     10.758453
   1.86208     10.708316
   1.83933     10.663267
   1.81657     10.623969
   1.79382     10.590908
   1.77107     10.564421
   1.74831     10.544699
   1.72556     10.531802
   1.70281     10.525684
   1.70281     10.525684
   1.68561     10.528895
   1.66841     10.535892
   1.65121     10.546266
   1.63401     10.559718
   1.61681     10.575958
   1.59961     10.594677
   1.58241     10.615532
   1.56521     10.638130
   1.54801     10.662029
   1.53081     10.686704
   1.51361     10.711511
   1.49641     10.735580
   1.47921     10.757423
   1.46201     10.772785
   1.44481     10.753752
   1.42761     10.634076
   1.41041     10.480612
   1.39321     10.383301
   1.37601     10.290701
   1.35880     10.186059
   1.34160     10.071588
   1.32440      9.949408
   1.30720      9.821376
   1.29000      9.689040
   1.27280      9.553647
   1.25560      9.416189
   1.23840      9.277450
   1.22120      9.138047
   1.20400      8.998471
   1.18680      8.859113
   1.16960      8.720284
   1.15240      8.582239
   1.13520      8.445183
   1.11800      8.309286
   1.10080      8.174690
   1.08360      8.041511
   1.06640      7.909846
   1.04920      7.779780
   1.03200      7.651383
   1.01480      7.524716
   0.99760      7.399833
   0.98040      7.276780
   0.96320      7.155599
   0.94600      7.036328
   0.92880      6.919005
   0.91160      6.803676
   0.89440      6.690418
   0.87720      6.579496
   0.86000      6.477565
   0.84280      6.592702
   0.82560      6.742540
   0.80840      6.700806
   0.79120      6.653915
   0.77400      6.551412
   0.75680      6.451126
   0.73960      6.353211
   0.72240      6.257533
   0.70520      6.164084
   0.68800      6.072900
   0.67080      5.983966
   0.65360      5.897283
   0.63640      5.812851
   0.61920      5.730670
   0.60200      5.650736
   0.58480      5.573051
   0.56760      5.497621
   0.55040      5.424441
   0.53320      5.353514
   0.51600      5.284835
   0.49880      5.218409
   0.48160      5.154234
   0.46440      5.092311
   0.44720      5.032638
   0.43000      4.975217
   0.41280      4.920048
   0.39560      4.867130
   0.37840      4.816464
   0.36120      4.768050
   0.34400      4.721887
   0.32680      4.677977
   0.30960      4.636318
   0.29240      4.596910
   0.27520      4.559754
   0.25800      4.524850
   0.24080      4.492199
   0.22360      4.461800
   0.20640      4.433651
   0.18920      4.407753
   0.17200      4.384109
   0.15480      4.362715
   0.13760      4.343575
   0.12040      4.326685
   0.10320      4.312048
   0.08600      4.299664
   0.06880      4.289529
   0.05160      4.281647
   0.03440      4.276017
   0.01720      4.272639
   0.00000      4.271515
