#K-Path(1/A)         Spin-Up(eV)   Spin-down(eV)
# NKPTS & NBANDS: 200  17
# Band-Index    1
   0.00000    -19.314991    -19.314991
   0.16111    -19.313152    -19.313152
   0.32221    -19.307151    -19.307151
   0.48332    -19.297550    -19.297550
   0.64443    -19.284897    -19.284897
   0.80554    -19.268293    -19.268293
   0.96664    -19.248930    -19.248930
   1.12775    -19.225396    -19.225396
   1.28886    -19.200000    -19.200000
   1.44997    -19.171893    -19.171893
   1.61107    -19.141333    -19.141333
   1.77218    -19.108580    -19.108580
   1.93329    -19.075003    -19.075003
   2.09440    -19.038788    -19.038788
   2.25550    -19.001297    -19.001297
   2.41661    -18.962856    -18.962856
   2.57772    -18.923789    -18.923789
   2.73882    -18.884425    -18.884425
   2.89993    -18.846245    -18.846245
   3.06104    -18.808383    -18.808383
   3.22215    -18.770152    -18.770152
   3.38325    -18.732375    -18.732375
   3.54436    -18.696291    -18.696291
   3.70547    -18.661646    -18.661646
   3.86658    -18.627086    -18.627086
   4.02768    -18.595916    -18.595916
   4.18879    -18.566707    -18.566707
   4.34990    -18.540164    -18.540164
   4.51100    -18.515253    -18.515253
   4.67211    -18.492554    -18.492554
   4.83322    -18.471000    -18.471000
   4.99433    -18.452799    -18.452799
   5.15543    -18.436844    -18.436844
   5.31654    -18.423113    -18.423113
   5.47765    -18.411571    -18.411571
   5.63876    -18.401512    -18.401512
   5.79986    -18.394276    -18.394276
   5.96097    -18.389130    -18.389130
   6.12208    -18.385614    -18.385614
   6.28319    -18.384594    -18.384594
   6.28319    -18.384594    -18.384594
   6.36374    -18.384453    -18.384453
   6.44429    -18.384031    -18.384031
   6.52485    -18.383974    -18.383974
   6.60540    -18.383019    -18.383019
   6.68595    -18.382462    -18.382462
   6.76651    -18.381011    -18.381011
   6.84706    -18.379345    -18.379345
   6.92761    -18.377526    -18.377526
   7.00817    -18.376387    -18.376387
   7.08872    -18.375242    -18.375242
   7.16928    -18.376093    -18.376093
   7.24983    -18.378719    -18.378719
   7.33038    -18.381593    -18.381593
   7.41094    -18.385439    -18.385439
   7.49149    -18.389065    -18.389065
   7.57204    -18.392726    -18.392726
   7.65260    -18.396591    -18.396591
   7.73315    -18.400521    -18.400521
   7.81370    -18.404485    -18.404485
   7.89426    -18.408456    -18.408456
   7.97481    -18.412410    -18.412410
   8.05537    -18.416318    -18.416318
   8.13592    -18.420056    -18.420056
   8.21647    -18.423805    -18.423805
   8.29703    -18.427433    -18.427433
   8.37758    -18.431860    -18.431860
   8.45813    -18.434619    -18.434619
   8.53869    -18.437773    -18.437773
   8.61924    -18.440720    -18.440720
   8.69980    -18.443443    -18.443443
   8.78035    -18.446175    -18.446175
   8.86090    -18.448402    -18.448402
   8.94146    -18.450359    -18.450359
   9.02201    -18.452163    -18.452163
   9.10256    -18.453552    -18.453552
   9.18312    -18.454640    -18.454640
   9.26367    -18.455420    -18.455420
   9.34422    -18.456134    -18.456134
   9.42478    -18.456576    -18.456576
   9.42478    -18.456576    -18.456576
   9.63015    -18.493770    -18.493770
   9.83552    -18.534926    -18.534926
  10.04089    -18.579057    -18.579057
  10.24627    -18.625863    -18.625863
  10.45164    -18.674999    -18.674999
  10.65701    -18.725650    -18.725650
  10.86238    -18.776488    -18.776488
  11.06776    -18.827689    -18.827689
  11.27313    -18.878380    -18.878380
  11.47850    -18.928008    -18.928008
  11.68387    -18.975524    -18.975524
  11.88925    -19.020309    -19.020309
  12.09462    -19.062524    -19.062524
  12.29999    -19.100400    -19.100400
  12.50536    -19.134306    -19.134306
  12.71074    -19.163809    -19.163809
  12.91611    -19.188594    -19.188594
  13.12148    -19.208053    -19.208053
  13.32685    -19.222113    -19.222113
  13.53222    -19.230610    -19.230610
  13.73760    -19.233449    -19.233449
  13.94297    -19.231127    -19.231127
  14.14834    -19.222367    -19.222367
  14.35371    -19.208053    -19.208053
  14.55909    -19.188070    -19.188070
  14.76446    -19.163319    -19.163319
  14.96983    -19.134085    -19.134085
  15.17520    -19.100306    -19.100306
  15.38058    -19.062005    -19.062005
  15.58595    -19.020309    -19.020309
  15.79132    -18.975240    -18.975240
  15.99669    -18.928114    -18.928114
  16.20207    -18.878353    -18.878353
  16.40744    -18.827810    -18.827810
  16.61281    -18.776652    -18.776652
  16.81818    -18.725453    -18.725453
  17.02355    -18.675055    -18.675055
  17.22893    -18.626001    -18.626001
  17.43430    -18.579338    -18.579338
  17.43430    -18.579338    -18.579338
  17.60518    -18.604877    -18.604877
  17.77606    -18.630050    -18.630050
  17.94694    -18.654273    -18.654273
  18.11782    -18.677637    -18.677637
  18.28870    -18.699021    -18.699021
  18.45958    -18.718813    -18.718813
  18.63046    -18.736245    -18.736245
  18.80134    -18.751254    -18.751254
  18.97222    -18.763583    -18.763583
  19.14310    -18.774122    -18.774122
  19.31398    -18.781906    -18.781906
  19.48486    -18.787225    -18.787225
  19.65574    -18.789168    -18.789168
  19.82662    -18.787396    -18.787396
  19.99750    -18.782267    -18.782267
  20.16838    -18.774731    -18.774731
  20.33926    -18.764573    -18.764573
  20.51014    -18.752975    -18.752975
  20.68102    -18.740163    -18.740163
  20.85190    -18.740278    -18.740278
  21.02278    -18.777754    -18.777754
  21.19366    -18.821741    -18.821741
  21.36454    -18.867025    -18.867025
  21.53542    -18.911568    -18.911568
  21.70630    -18.956196    -18.956196
  21.87718    -18.999427    -18.999427
  22.04806    -19.041089    -19.041089
  22.21894    -19.080272    -19.080272
  22.38982    -19.117721    -19.117721
  22.56070    -19.152566    -19.152566
  22.73158    -19.184548    -19.184548
  22.90246    -19.213377    -19.213377
  23.07334    -19.240144    -19.240144
  23.24422    -19.262566    -19.262566
  23.41510    -19.280973    -19.280973
  23.58598    -19.295727    -19.295727
  23.75686    -19.306485    -19.306485
  23.92774    -19.312923    -19.312923
  24.09862    -19.314991    -19.314991
  24.09862    -19.314991    -19.314991
  24.23815    -19.313613    -19.313613
  24.37767    -19.309480    -19.309480
  24.51719    -19.301891    -19.301891
  24.65672    -19.292334    -19.292334
  24.79624    -19.280113    -19.280113
  24.93576    -19.264897    -19.264897
  25.07528    -19.246755    -19.246755
  25.21481    -19.226977    -19.226977
  25.35433    -19.204053    -19.204053
  25.49385    -19.179685    -19.179685
  25.63338    -19.152450    -19.152450
  25.77290    -19.124428    -19.124428
  25.91242    -19.094173    -19.094173
  26.05195    -19.062263    -19.062263
  26.19147    -19.028789    -19.028789
  26.33099    -18.994223    -18.994223
  26.47051    -18.958820    -18.958820
  26.61004    -18.924165    -18.924164
  26.74956    -18.892341    -18.892341
  26.88908    -18.892341    -18.892341
  27.02861    -18.924165    -18.924165
  27.16813    -18.958820    -18.958820
  27.30765    -18.994223    -18.994223
  27.44718    -19.028789    -19.028789
  27.58670    -19.062263    -19.062263
  27.72622    -19.094173    -19.094173
  27.86575    -19.124428    -19.124428
  28.00527    -19.152450    -19.152450
  28.14479    -19.179685    -19.179685
  28.28431    -19.204053    -19.204053
  28.42384    -19.226977    -19.226977
  28.56336    -19.246755    -19.246755
  28.70288    -19.264897    -19.264897
  28.84241    -19.280113    -19.280113
  28.98193    -19.292334    -19.292334
  29.12145    -19.301891    -19.301891
  29.26098    -19.309480    -19.309480
  29.40050    -19.313613    -19.313613
  29.54002    -19.314991    -19.314991
 
# Band-Index    2
  29.54002    -18.354986    -18.354986
  29.40050    -18.356746    -18.356746
  29.26098    -18.362397    -18.362397
  29.12145    -18.372002    -18.372002
  28.98193    -18.384111    -18.384111
  28.84241    -18.399478    -18.399477
  28.70288    -18.417958    -18.417958
  28.56336    -18.439912    -18.439912
  28.42384    -18.464498    -18.464498
  28.28431    -18.491267    -18.491267
  28.14479    -18.519613    -18.519613
  28.00527    -18.550782    -18.550782
  27.86575    -18.583758    -18.583758
  27.72622    -18.618266    -18.618266
  27.58670    -18.654035    -18.654035
  27.44718    -18.690759    -18.690759
  27.30765    -18.727425    -18.727425
  27.16813    -18.764994    -18.764994
  27.02861    -18.801957    -18.801957
  26.88908    -18.834524    -18.834524
  26.74956    -18.834524    -18.834524
  26.61004    -18.801957    -18.801957
  26.47051    -18.764994    -18.764994
  26.33099    -18.727425    -18.727425
  26.19147    -18.690759    -18.690759
  26.05195    -18.654035    -18.654035
  25.91242    -18.618266    -18.618266
  25.77290    -18.583758    -18.583758
  25.63338    -18.550782    -18.550782
  25.49385    -18.519613    -18.519613
  25.35433    -18.491267    -18.491267
  25.21481    -18.464498    -18.464498
  25.07528    -18.439912    -18.439912
  24.93576    -18.417958    -18.417958
  24.79624    -18.399478    -18.399477
  24.65672    -18.384111    -18.384111
  24.51719    -18.372002    -18.372002
  24.37767    -18.362397    -18.362397
  24.23815    -18.356746    -18.356746
  24.09862    -18.354986    -18.354986
  24.09862    -18.354986    -18.354986
  23.92774    -18.357098    -18.357099
  23.75686    -18.362433    -18.362433
  23.58598    -18.370731    -18.370731
  23.41510    -18.382133    -18.382133
  23.24422    -18.396429    -18.396429
  23.07334    -18.413665    -18.413665
  22.90246    -18.433579    -18.433579
  22.73158    -18.454930    -18.454930
  22.56070    -18.478419    -18.478419
  22.38982    -18.501975    -18.501975
  22.21894    -18.526705    -18.526705
  22.04806    -18.552623    -18.552623
  21.87718    -18.578542    -18.578542
  21.70630    -18.603957    -18.603957
  21.53542    -18.628945    -18.628945
  21.36454    -18.652875    -18.652875
  21.19366    -18.675689    -18.675689
  21.02278    -18.695688    -18.695688
  20.85190    -18.707541    -18.707541
  20.68102    -18.680480    -18.680480
  20.51014    -18.639282    -18.639282
  20.33926    -18.598215    -18.598215
  20.16838    -18.559770    -18.559770
  19.99750    -18.522500    -18.522500
  19.82662    -18.487745    -18.487745
  19.65574    -18.456373    -18.456373
  19.48486    -18.426982    -18.426982
  19.31398    -18.401255    -18.401255
  19.14310    -18.378795    -18.378795
  18.97222    -18.358977    -18.358977
  18.80134    -18.343718    -18.343718
  18.63046    -18.331130    -18.331130
  18.45958    -18.321633    -18.321633
  18.28870    -18.315052    -18.315052
  18.11782    -18.311177    -18.311177
  17.94694    -18.309752    -18.309752
  17.77606    -18.310501    -18.310501
  17.60518    -18.312622    -18.312622
  17.43430    -18.316837    -18.316837
  17.43430    -18.316837    -18.316837
  17.22893    -18.314345    -18.314345
  17.02355    -18.313263    -18.313263
  16.81818    -18.313467    -18.313467
  16.61281    -18.314113    -18.314113
  16.40744    -18.316316    -18.316316
  16.20207    -18.319107    -18.319107
  15.99669    -18.322120    -18.322120
  15.79132    -18.325723    -18.325723
  15.58595    -18.328900    -18.328900
  15.38058    -18.331951    -18.331951
  15.17520    -18.334860    -18.334860
  14.96983    -18.338214    -18.338214
  14.76446    -18.340857    -18.340857
  14.55909    -18.343505    -18.343505
  14.35371    -18.345400    -18.345400
  14.14834    -18.346635    -18.346635
  13.94297    -18.347432    -18.347432
  13.73760    -18.347886    -18.347886
  13.53222    -18.347624    -18.347624
  13.32685    -18.346787    -18.346787
  13.12148    -18.345400    -18.345400
  12.91611    -18.343157    -18.343157
  12.71074    -18.341135    -18.341135
  12.50536    -18.338256    -18.338256
  12.29999    -18.335172    -18.335172
  12.09462    -18.332525    -18.332525
  11.88925    -18.328900    -18.328900
  11.68387    -18.324996    -18.324995
  11.47850    -18.321524    -18.321524
  11.27313    -18.317395    -18.317395
  11.06776    -18.313905    -18.313905
  10.86238    -18.310283    -18.310283
  10.65701    -18.307039    -18.307039
  10.45164    -18.304113    -18.304113
  10.24627    -18.301438    -18.301438
  10.04089    -18.299789    -18.299789
   9.83552    -18.298120    -18.298120
   9.63015    -18.296636    -18.296636
   9.42478    -18.296307    -18.296307
   9.42478    -18.296307    -18.296307
   9.34422    -18.296453    -18.296453
   9.26367    -18.296892    -18.296892
   9.18312    -18.297619    -18.297619
   9.10256    -18.298631    -18.298631
   9.02201    -18.299919    -18.299919
   8.94146    -18.301476    -18.301476
   8.86090    -18.303291    -18.303291
   8.78035    -18.305683    -18.305683
   8.69980    -18.307986    -18.307986
   8.61924    -18.310504    -18.310504
   8.53869    -18.313220    -18.313220
   8.45813    -18.316116    -18.316116
   8.37758    -18.319172    -18.319172
   8.29703    -18.322366    -18.322366
   8.21647    -18.325678    -18.325678
   8.13592    -18.329085    -18.329085
   8.05537    -18.333140    -18.333140
   7.97481    -18.336684    -18.336684
   7.89426    -18.340253    -18.340253
   7.81370    -18.344049    -18.344049
   7.73315    -18.347612    -18.347612
   7.65260    -18.351128    -18.351128
   7.57204    -18.354571    -18.354571
   7.49149    -18.357913    -18.357913
   7.41094    -18.361371    -18.361371
   7.33038    -18.364382    -18.364382
   7.24983    -18.367134    -18.367134
   7.16928    -18.368876    -18.368876
   7.08872    -18.369606    -18.369606
   7.00817    -18.368110    -18.368110
   6.92761    -18.365925    -18.365925
   6.84706    -18.363810    -18.363810
   6.76651    -18.361878    -18.361878
   6.68595    -18.360191    -18.360191
   6.60540    -18.358486    -18.358486
   6.52485    -18.357372    -18.357372
   6.44429    -18.356435    -18.356435
   6.36374    -18.355114    -18.355114
   6.28319    -18.354954    -18.354954
   6.28319    -18.354954    -18.354954
   6.12208    -18.356449    -18.356449
   5.96097    -18.358544    -18.358544
   5.79986    -18.362044    -18.362044
   5.63876    -18.366396    -18.366396
   5.47765    -18.371777    -18.371777
   5.31654    -18.377795    -18.377795
   5.15543    -18.384925    -18.384925
   4.99433    -18.392353    -18.392353
   4.83322    -18.400217    -18.400217
   4.67211    -18.408198    -18.408198
   4.51100    -18.416088    -18.416088
   4.34990    -18.423594    -18.423594
   4.18879    -18.431656    -18.431656
   4.02768    -18.437572    -18.437572
   3.86658    -18.443246    -18.443246
   3.70547    -18.448205    -18.448205
   3.54436    -18.451967    -18.451967
   3.38325    -18.454442    -18.454442
   3.22215    -18.455931    -18.455931
   3.06104    -18.455926    -18.455926
   2.89993    -18.454429    -18.454429
   2.73882    -18.451944    -18.451944
   2.57772    -18.448175    -18.448175
   2.41661    -18.443206    -18.443206
   2.25550    -18.437527    -18.437527
   2.09440    -18.431605    -18.431605
   1.93329    -18.423539    -18.423539
   1.77218    -18.416031    -18.416031
   1.61107    -18.408143    -18.408143
   1.44997    -18.400169    -18.400169
   1.28886    -18.392312    -18.392312
   1.12775    -18.384899    -18.384899
   0.96664    -18.377784    -18.377784
   0.80554    -18.371777    -18.371777
   0.64443    -18.366409    -18.366409
   0.48332    -18.362068    -18.362068
   0.32221    -18.358576    -18.358576
   0.16111    -18.356484    -18.356484
   0.00000    -18.354986    -18.354986
 
# Band-Index    3
   0.00000     -7.139429     -7.139429
   0.16111     -7.134937     -7.134937
   0.32221     -7.121236     -7.121236
   0.48332     -7.098553     -7.098553
   0.64443     -7.067327     -7.067327
   0.80554     -7.028094     -7.028094
   0.96664     -6.981344     -6.981344
   1.12775     -6.928492     -6.928492
   1.28886     -6.870337     -6.870337
   1.44997     -6.807519     -6.807519
   1.61107     -6.741697     -6.741697
   1.77218     -6.674364     -6.674364
   1.93329     -6.607008     -6.607008
   2.09440     -6.542811     -6.542811
   2.25550     -6.481163     -6.481163
   2.41661     -6.425992     -6.425992
   2.57772     -6.379090     -6.379090
   2.73882     -6.342081     -6.342081
   2.89993     -6.316633     -6.316633
   3.06104     -6.304393     -6.304393
   3.22215     -6.304964     -6.304964
   3.38325     -6.318155     -6.318155
   3.54436     -6.344041     -6.344041
   3.70547     -6.380978     -6.380978
   3.86658     -6.427511     -6.427511
   4.02768     -6.482299     -6.482299
   4.18879     -6.543697     -6.543696
   4.34990     -6.607816     -6.607816
   4.51100     -6.675197     -6.675197
   4.67211     -6.742592     -6.742592
   4.83322     -6.808471     -6.808471
   4.99433     -6.871324     -6.871324
   5.15543     -6.929489     -6.929489
   5.31654     -6.982321     -6.982321
   5.47765     -7.029029     -7.029029
   5.63876     -7.068213     -7.068213
   5.79986     -7.099393     -7.099393
   5.96097     -7.122036     -7.122036
   6.12208     -7.135711     -7.135711
   6.28319     -7.140195     -7.140195
   6.28319     -7.140195     -7.140195
   6.36374     -7.139040     -7.139040
   6.44429     -7.135704     -7.135704
   6.52485     -7.130019     -7.130019
   6.60540     -7.122007     -7.122007
   6.68595     -7.111768     -7.111768
   6.76651     -7.099331     -7.099331
   6.84706     -7.084756     -7.084756
   6.92761     -7.068107     -7.068107
   7.00817     -7.049453     -7.049453
   7.08872     -7.028874     -7.028874
   7.16928     -7.006258     -7.006258
   7.24983     -6.982118     -6.982118
   7.33038     -6.956351     -6.956351
   7.41094     -6.929245     -6.929245
   7.49149     -6.900592     -6.900592
   7.57204     -6.871046     -6.871046
   7.65260     -6.840071     -6.840071
   7.73315     -6.808164     -6.808164
   7.81370     -6.775493     -6.775493
   7.89426     -6.742236     -6.742236
   7.97481     -6.708589     -6.708589
   8.05537     -6.674748     -6.674748
   8.13592     -6.640734     -6.640734
   8.21647     -6.607160     -6.607160
   8.29703     -6.574050     -6.574050
   8.37758     -6.542631     -6.542631
   8.45813     -6.510748     -6.510748
   8.53869     -6.480557     -6.480557
   8.61924     -6.451832     -6.451832
   8.69980     -6.424833     -6.424833
   8.78035     -6.400005     -6.400005
   8.86090     -6.377245     -6.377245
   8.94146     -6.356963     -6.356963
   9.02201     -6.339434     -6.339434
   9.10256     -6.324739     -6.324739
   9.18312     -6.313117     -6.313117
   9.26367     -6.304708     -6.304708
   9.34422     -6.300041     -6.300041
   9.42478     -6.298394     -6.298394
   9.42478     -6.298394     -6.298394
   9.63015     -6.261883     -6.261883
   9.83552     -6.206707     -6.206707
  10.04089     -6.132836     -6.132836
  10.24627     -6.041429     -6.041429
  10.45164     -5.934170     -5.934170
  10.65701     -5.898154     -5.898154
  10.86238     -6.011061     -6.011061
  11.06776     -6.124288     -6.124288
  11.27313     -6.235268     -6.235268
  11.47850     -6.342677     -6.342677
  11.68387     -6.444152     -6.444152
  11.88925     -6.539676     -6.539676
  12.09462     -6.627637     -6.627637
  12.29999     -6.707199     -6.707199
  12.50536     -6.777728     -6.777728
  12.71074     -6.838506     -6.838506
  12.91611     -6.888928     -6.888928
  13.12148     -6.928822     -6.928822
  13.32685     -6.957382     -6.957382
  13.53222     -6.974653     -6.974653
  13.73760     -6.980485     -6.980485
  13.94297     -6.974873     -6.974873
  14.14834     -6.957472     -6.957472
  14.35371     -6.928822     -6.928822
  14.55909     -6.889098     -6.889098
  14.76446     -6.838558     -6.838558
  14.96983     -6.777876     -6.777876
  15.17520     -6.707139     -6.707139
  15.38058     -6.627603     -6.627603
  15.58595     -6.539676     -6.539676
  15.79132     -6.444462     -6.444462
  15.99669     -6.342607     -6.342607
  16.20207     -6.235619     -6.235619
  16.40744     -6.124669     -6.124669
  16.61281     -6.012153     -6.012153
  16.81818     -5.925552     -5.925552
  17.02355     -6.052429     -6.052429
  17.22893     -6.184499     -6.184499
  17.43430     -6.302985     -6.302985
  17.43430     -6.302985     -6.302985
  17.60518     -6.210400     -6.210400
  17.77606     -6.123967     -6.123967
  17.94694     -6.046137     -6.046137
  18.11782     -5.991346     -5.991346
  18.28870     -6.043484     -6.043484
  18.45958     -6.119189     -6.119189
  18.63046     -6.185152     -6.185152
  18.80134     -6.238819     -6.238819
  18.97222     -6.278776     -6.278776
  19.14310     -6.306775     -6.306775
  19.31398     -6.319545     -6.319545
  19.48486     -6.318053     -6.318053
  19.65574     -6.303075     -6.303075
  19.82662     -6.272871     -6.272871
  19.99750     -6.228642     -6.228642
  20.16838     -6.170525     -6.170525
  20.33926     -6.097262     -6.097262
  20.51014     -6.012692     -6.012692
  20.68102     -5.915749     -5.915749
  20.85190     -5.855146     -5.855146
  21.02278     -5.907014     -5.907014
  21.19366     -5.968418     -5.968418
  21.36454     -6.039361     -6.039361
  21.53542     -6.119025     -6.119025
  21.70630     -6.206151     -6.206151
  21.87718     -6.299248     -6.299248
  22.04806     -6.395452     -6.395452
  22.21894     -6.492594     -6.492594
  22.38982     -6.589364     -6.589364
  22.56070     -6.682735     -6.682735
  22.73158     -6.770384     -6.770384
  22.90246     -6.851678     -6.851678
  23.07334     -6.923883     -6.923883
  23.24422     -6.987881     -6.987881
  23.41510     -7.041441     -7.041441
  23.58598     -7.083892     -7.083892
  23.75686     -7.114641     -7.114641
  23.92774     -7.133254     -7.133254
  24.09862     -7.139429     -7.139429
  24.09862     -7.139429     -7.139429
  24.23815     -7.134574     -7.134574
  24.37767     -7.120186     -7.120186
  24.51719     -7.096029     -7.096029
  24.65672     -7.062359     -7.062359
  24.79624     -7.019320     -7.019320
  24.93576     -6.967105     -6.967105
  25.07528     -6.906984     -6.906984
  25.21481     -6.837673     -6.837673
  25.35433     -6.759629     -6.759629
  25.49385     -6.672745     -6.672745
  25.63338     -6.579205     -6.579205
  25.77290     -6.478703     -6.478703
  25.91242     -6.371795     -6.371795
  26.05195     -6.259394     -6.259394
  26.19147     -6.142746     -6.142746
  26.33099     -6.022598     -6.022598
  26.47051     -5.905821     -5.905821
  26.61004     -5.800630     -5.800630
  26.74956     -5.729800     -5.729800
  26.88908     -5.729800     -5.729800
  27.02861     -5.800630     -5.800630
  27.16813     -5.905821     -5.905821
  27.30765     -6.022598     -6.022598
  27.44718     -6.142746     -6.142746
  27.58670     -6.259394     -6.259394
  27.72622     -6.371795     -6.371795
  27.86575     -6.478703     -6.478703
  28.00527     -6.579205     -6.579205
  28.14479     -6.672745     -6.672745
  28.28431     -6.759629     -6.759629
  28.42384     -6.837673     -6.837673
  28.56336     -6.906984     -6.906984
  28.70288     -6.967105     -6.967105
  28.84241     -7.019320     -7.019320
  28.98193     -7.062359     -7.062359
  29.12145     -7.096029     -7.096029
  29.26098     -7.120186     -7.120186
  29.40050     -7.134574     -7.134574
  29.54002     -7.139429     -7.139429
 
# Band-Index    4
  29.54002     -4.906000     -4.906000
  29.40050     -4.904275     -4.904275
  29.26098     -4.899591     -4.899591
  29.12145     -4.892412     -4.892412
  28.98193     -4.880528     -4.880528
  28.84241     -4.865376     -4.865376
  28.70288     -4.847064     -4.847064
  28.56336     -4.825750     -4.825750
  28.42384     -4.801827     -4.801827
  28.28431     -4.775108     -4.775108
  28.14479     -4.745020     -4.745020
  28.00527     -4.714131     -4.714131
  27.86575     -4.681966     -4.681966
  27.72622     -4.649127     -4.649127
  27.58670     -4.616504     -4.616504
  27.44718     -4.702201     -4.702201
  27.30765     -4.853145     -4.853145
  27.16813     -4.994360     -4.994360
  27.02861     -5.117282     -5.117282
  26.88908     -5.196307     -5.196307
  26.74956     -5.196307     -5.196307
  26.61004     -5.117281     -5.117281
  26.47051     -4.994360     -4.994360
  26.33099     -4.853145     -4.853145
  26.19147     -4.702201     -4.702201
  26.05195     -4.616504     -4.616504
  25.91242     -4.649127     -4.649127
  25.77290     -4.681966     -4.681966
  25.63338     -4.714131     -4.714131
  25.49385     -4.745020     -4.745020
  25.35433     -4.775108     -4.775108
  25.21481     -4.801827     -4.801827
  25.07528     -4.825750     -4.825750
  24.93576     -4.847064     -4.847064
  24.79624     -4.865376     -4.865376
  24.65672     -4.880528     -4.880528
  24.51719     -4.892412     -4.892412
  24.37767     -4.899591     -4.899591
  24.23815     -4.904275     -4.904275
  24.09862     -4.906000     -4.906000
  24.09862     -4.906000     -4.906000
  23.92774     -4.906792     -4.906792
  23.75686     -4.906018     -4.906018
  23.58598     -4.903956     -4.903956
  23.41510     -4.900988     -4.900988
  23.24422     -4.897103     -4.897103
  23.07334     -4.892105     -4.892105
  22.90246     -4.886821     -4.886821
  22.73158     -4.881476     -4.881476
  22.56070     -4.878290     -4.878290
  22.38982     -4.879156     -4.879156
  22.21894     -4.894264     -4.894264
  22.04806     -4.940699     -4.940699
  21.87718     -5.028235     -5.028236
  21.70630     -5.148579     -5.148579
  21.53542     -5.283667     -5.283667
  21.36454     -5.422946     -5.422946
  21.19366     -5.557891     -5.557891
  21.02278     -5.688190     -5.688190
  20.85190     -5.807219     -5.807219
  20.68102     -5.812298     -5.812298
  20.51014     -5.777319     -5.777319
  20.33926     -5.750095     -5.750095
  20.16838     -5.730942     -5.730942
  19.99750     -5.718062     -5.718062
  19.82662     -5.709939     -5.709939
  19.65574     -5.706626     -5.706626
  19.48486     -5.708409     -5.708409
  19.31398     -5.715133     -5.715133
  19.14310     -5.726854     -5.726854
  18.97222     -5.745232     -5.745232
  18.80134     -5.772094     -5.772094
  18.63046     -5.807027     -5.807027
  18.45958     -5.849672     -5.849672
  18.28870     -5.899132     -5.899131
  18.11782     -5.923133     -5.923133
  17.94694     -5.839028     -5.839028
  17.77606     -5.730961     -5.730961
  17.60518     -5.653475     -5.653475
  17.43430     -5.700061     -5.700061
  17.43430     -5.700061     -5.700061
  17.22893     -5.707255     -5.707255
  17.02355     -5.786098     -5.786098
  16.81818     -5.873372     -5.873372
  16.61281     -5.739922     -5.739922
  16.40744     -5.569983     -5.569983
  16.20207     -5.389939     -5.389939
  15.99669     -5.270778     -5.270778
  15.79132     -5.222692     -5.222692
  15.58595     -5.177293     -5.177293
  15.38058     -5.135553     -5.135552
  15.17520     -5.098197     -5.098197
  14.96983     -5.067416     -5.067416
  14.76446     -5.041639     -5.041639
  14.55909     -5.021318     -5.021318
  14.35371     -5.005632     -5.005632
  14.14834     -4.994200     -4.994200
  13.94297     -4.986097     -4.986097
  13.73760     -4.982331     -4.982331
  13.53222     -4.983786     -4.983786
  13.32685     -4.991445     -4.991445
  13.12148     -5.005632     -5.005632
  12.91611     -5.025614     -5.025614
  12.71074     -5.050786     -5.050787
  12.50536     -5.079222     -5.079222
  12.29999     -5.110105     -5.110105
  12.09462     -5.144384     -5.144384
  11.88925     -5.177293     -5.177293
  11.68387     -5.210376     -5.210376
  11.47850     -5.243248     -5.243248
  11.27313     -5.359654     -5.359654
  11.06776     -5.520562     -5.520562
  10.86238     -5.670952     -5.670951
  10.65701     -5.807612     -5.807612
  10.45164     -5.781111     -5.781111
  10.24627     -5.671393     -5.671393
  10.04089     -5.568047     -5.568047
   9.83552     -5.476359     -5.476359
   9.63015     -5.417432     -5.417432
   9.42478     -5.415585     -5.415585
   9.42478     -5.415585     -5.415585
   9.34422     -5.431925     -5.431925
   9.26367     -5.459160     -5.459160
   9.18312     -5.487389     -5.487389
   9.10256     -5.515281     -5.515281
   9.02201     -5.542521     -5.542521
   8.94146     -5.569007     -5.569007
   8.86090     -5.594707     -5.594707
   8.78035     -5.620310     -5.620310
   8.69980     -5.644419     -5.644419
   8.61924     -5.667737     -5.667736
   8.53869     -5.690263     -5.690263
   8.45813     -5.711999     -5.711999
   8.37758     -5.732950     -5.732950
   8.29703     -5.753098     -5.753098
   8.21647     -5.772469     -5.772469
   8.13592     -5.791047     -5.791047
   8.05537     -5.809047     -5.809047
   7.97481     -5.826043     -5.826043
   7.89426     -5.842241     -5.842241
   7.81370     -5.857225     -5.857225
   7.73315     -5.871846     -5.871846
   7.65260     -5.885661     -5.885661
   7.57204     -5.898671     -5.898671
   7.49149     -5.910877     -5.910877
   7.41094     -5.922279     -5.922279
   7.33038     -5.932879     -5.932879
   7.24983     -5.942680     -5.942680
   7.16928     -5.951567     -5.951567
   7.08872     -5.959775     -5.959775
   7.00817     -5.967191     -5.967191
   6.92761     -5.973025     -5.973025
   6.84706     -5.978876     -5.978876
   6.76651     -5.983942     -5.983942
   6.68595     -5.988224     -5.988224
   6.60540     -5.991695     -5.991695
   6.52485     -5.994417     -5.994417
   6.44429     -5.996332     -5.996332
   6.36374     -5.997499     -5.997499
   6.28319     -5.997887     -5.997888
   6.28319     -5.997888     -5.997888
   6.12208     -5.999922     -5.999922
   5.96097     -6.007345     -6.007345
   5.79986     -6.016880     -6.016880
   5.63876     -6.029085     -6.029085
   5.47765     -6.044030     -6.044030
   5.31654     -6.058442     -6.058442
   5.15543     -6.072107     -6.072107
   4.99433     -6.083690     -6.083690
   4.83322     -6.091864     -6.091864
   4.67211     -6.095067     -6.095067
   4.51100     -6.092571     -6.092571
   4.34990     -6.082882     -6.082882
   4.18879     -6.065005     -6.065005
   4.02768     -6.037880     -6.037880
   3.86658     -6.000738     -6.000738
   3.70547     -5.953421     -5.953421
   3.54436     -5.895378     -5.895378
   3.38325     -5.827084     -5.827084
   3.22215     -5.749319     -5.749319
   3.06104     -5.661616     -5.661616
   2.89993     -5.560732     -5.560732
   2.73882     -5.455483     -5.455483
   2.57772     -5.346348     -5.346348
   2.41661     -5.236662     -5.236662
   2.25550     -5.135007     -5.135007
   2.09440     -5.052925     -5.052925
   1.93329     -4.994999     -4.994999
   1.77218     -4.958925     -4.958925
   1.61107     -4.936842     -4.936842
   1.44997     -4.923031     -4.923032
   1.28886     -4.914493     -4.914493
   1.12775     -4.910087     -4.910087
   0.96664     -4.906813     -4.906813
   0.80554     -4.906492     -4.906492
   0.64443     -4.906444     -4.906444
   0.48332     -4.906840     -4.906840
   0.32221     -4.907256     -4.907256
   0.16111     -4.907300     -4.907300
   0.00000     -4.906000     -4.906000
 
# Band-Index    5
   0.00000     -4.906000     -4.906000
   0.16111     -4.906215     -4.906215
   0.32221     -4.903852     -4.903852
   0.48332     -4.900773     -4.900773
   0.64443     -4.895393     -4.895393
   0.80554     -4.888652     -4.888652
   0.96664     -4.880589     -4.880589
   1.12775     -4.871438     -4.871438
   1.28886     -4.861499     -4.861499
   1.44997     -4.851099     -4.851099
   1.61107     -4.840335     -4.840335
   1.77218     -4.829472     -4.829471
   1.93329     -4.818753     -4.818753
   2.09440     -4.809151     -4.809151
   2.25550     -4.798526     -4.798526
   2.41661     -4.799185     -4.799185
   2.57772     -4.832400     -4.832400
   2.73882     -4.853903     -4.853903
   2.89993     -4.867611     -4.867611
   3.06104     -4.875060     -4.875060
   3.22215     -4.877229     -4.877229
   3.38325     -4.875097     -4.875097
   3.54436     -4.869793     -4.869793
   3.70547     -4.862585     -4.862585
   3.86658     -4.854313     -4.854313
   4.02768     -4.846975     -4.846975
   4.18879     -4.841414     -4.841414
   4.34990     -4.835551     -4.835551
   4.51100     -4.834189     -4.834189
   4.67211     -4.834818     -4.834818
   4.83322     -4.839489     -4.839489
   4.99433     -4.849039     -4.849039
   5.15543     -4.858199     -4.858199
   5.31654     -4.866643     -4.866643
   5.47765     -4.874098     -4.874098
   5.63876     -4.880325     -4.880324
   5.79986     -4.885296     -4.885296
   5.96097     -4.888063     -4.888063
   6.12208     -4.890244     -4.890244
   6.28319     -4.889950     -4.889950
   6.28319     -4.889950     -4.889950
   6.36374     -4.889909     -4.889909
   6.44429     -4.891201     -4.891201
   6.52485     -4.891406     -4.891406
   6.60540     -4.891399     -4.891399
   6.68595     -4.891648     -4.891648
   6.76651     -4.891885     -4.891885
   6.84706     -4.892332     -4.892332
   6.92761     -4.893028     -4.893028
   7.00817     -4.894121     -4.894121
   7.08872     -4.895465     -4.895465
   7.16928     -4.896543     -4.896543
   7.24983     -4.898805     -4.898805
   7.33038     -4.901059     -4.901059
   7.41094     -4.905584     -4.905584
   7.49149     -4.909583     -4.909583
   7.57204     -4.913750     -4.913750
   7.65260     -4.919300     -4.919300
   7.73315     -4.925708     -4.925708
   7.81370     -4.933033     -4.933033
   7.89426     -4.941179     -4.941179
   7.97481     -4.950467     -4.950467
   8.05537     -4.960806     -4.960805
   8.13592     -4.971510     -4.971510
   8.21647     -4.984098     -4.984099
   8.29703     -4.997958     -4.997958
   8.37758     -5.014199     -5.014199
   8.45813     -5.031168     -5.031168
   8.53869     -5.050845     -5.050845
   8.61924     -5.073690     -5.073690
   8.69980     -5.100038     -5.100038
   8.78035     -5.129604     -5.129604
   8.86090     -5.160732     -5.160732
   8.94146     -5.193808     -5.193808
   9.02201     -5.227455     -5.227455
   9.10256     -5.261109     -5.261109
   9.18312     -5.294288     -5.294288
   9.26367     -5.326441     -5.326440
   9.34422     -5.356083     -5.356083
   9.42478     -5.373263     -5.373263
   9.42478     -5.373263     -5.373263
   9.63015     -5.394911     -5.394911
   9.83552     -5.402192     -5.402192
  10.04089     -5.394917     -5.394917
  10.24627     -5.382606     -5.382606
  10.45164     -5.367261     -5.367261
  10.65701     -5.348518     -5.348518
  10.86238     -5.325969     -5.325969
  11.06776     -5.300833     -5.300833
  11.27313     -5.272037     -5.272037
  11.47850     -5.189530     -5.189530
  11.68387     -5.017731     -5.017731
  11.88925     -4.862771     -4.862771
  12.09462     -4.807513     -4.807513
  12.29999     -4.809493     -4.809493
  12.50536     -4.821256     -4.821256
  12.71074     -4.835342     -4.835342
  12.91611     -4.847619     -4.847619
  13.12148     -4.859365     -4.859365
  13.32685     -4.866837     -4.866837
  13.53222     -4.870233     -4.870233
  13.73760     -4.869976     -4.869976
  13.94297     -4.866707     -4.866706
  14.14834     -4.863162     -4.863162
  14.35371     -4.859365     -4.859365
  14.55909     -4.854203     -4.854203
  14.76446     -4.847000     -4.847000
  14.96983     -4.839206     -4.839206
  15.17520     -4.829756     -4.829757
  15.38058     -4.824961     -4.824960
  15.58595     -4.862771     -4.862771
  15.79132     -5.017828     -5.017827
  15.99669     -5.204296     -5.204296
  16.20207     -5.321223     -5.321223
  16.40744     -5.372590     -5.372590
  16.61281     -5.424707     -5.424707
  16.81818     -5.476148     -5.476148
  17.02355     -5.521154     -5.521154
  17.22893     -5.539683     -5.539683
  17.43430     -5.488430     -5.488431
  17.43430     -5.488431     -5.488430
  17.60518     -5.612303     -5.612303
  17.77606     -5.604539     -5.604539
  17.94694     -5.552677     -5.552677
  18.11782     -5.498345     -5.498345
  18.28870     -5.441428     -5.441428
  18.45958     -5.381725     -5.381725
  18.63046     -5.318980     -5.318980
  18.80134     -5.253004     -5.253004
  18.97222     -5.183530     -5.183530
  19.14310     -5.111482     -5.111482
  19.31398     -5.036026     -5.036026
  19.48486     -4.957800     -4.957800
  19.65574     -4.877116     -4.877116
  19.82662     -4.793425     -4.793424
  19.99750     -4.728488     -4.728488
  20.16838     -4.700837     -4.700837
  20.33926     -4.668003     -4.668003
  20.51014     -4.633610     -4.633611
  20.68102     -4.597759     -4.597759
  20.85190     -4.562640     -4.562640
  21.02278     -4.531412     -4.531412
  21.19366     -4.507755     -4.507755
  21.36454     -4.496694     -4.496694
  21.53542     -4.500381     -4.500382
  21.70630     -4.518192     -4.518192
  21.87718     -4.547439     -4.547439
  22.04806     -4.583533     -4.583533
  22.21894     -4.623465     -4.623465
  22.38982     -4.664975     -4.664975
  22.56070     -4.706792     -4.706792
  22.73158     -4.745064     -4.745064
  22.90246     -4.781004     -4.781004
  23.07334     -4.813092     -4.813092
  23.24422     -4.840189     -4.840189
  23.41510     -4.863699     -4.863699
  23.58598     -4.882283     -4.882284
  23.75686     -4.895712     -4.895711
  23.92774     -4.903327     -4.903327
  24.09862     -4.906000     -4.906000
  24.09862     -4.906000     -4.906000
  24.23815     -4.904275     -4.904275
  24.37767     -4.899591     -4.899591
  24.51719     -4.892412     -4.892412
  24.65672     -4.880528     -4.880528
  24.79624     -4.865375     -4.865376
  24.93576     -4.847064     -4.847064
  25.07528     -4.825750     -4.825750
  25.21481     -4.801827     -4.801827
  25.35433     -4.775107     -4.775107
  25.49385     -4.745020     -4.745020
  25.63338     -4.714131     -4.714131
  25.77290     -4.681966     -4.681966
  25.91242     -4.649126     -4.649127
  26.05195     -4.616504     -4.616504
  26.19147     -4.585246     -4.585246
  26.33099     -4.556168     -4.556168
  26.47051     -4.532352     -4.532352
  26.61004     -4.515322     -4.515322
  26.74956     -4.506158     -4.506158
  26.88908     -4.506158     -4.506158
  27.02861     -4.515322     -4.515322
  27.16813     -4.532352     -4.532352
  27.30765     -4.556168     -4.556168
  27.44718     -4.585246     -4.585246
  27.58670     -4.616504     -4.616504
  27.72622     -4.649127     -4.649127
  27.86575     -4.681966     -4.681966
  28.00527     -4.714131     -4.714131
  28.14479     -4.745020     -4.745020
  28.28431     -4.775108     -4.775108
  28.42384     -4.801827     -4.801827
  28.56336     -4.825750     -4.825750
  28.70288     -4.847064     -4.847064
  28.84241     -4.865376     -4.865375
  28.98193     -4.880528     -4.880528
  29.12145     -4.892412     -4.892412
  29.26098     -4.899591     -4.899591
  29.40050     -4.904275     -4.904275
  29.54002     -4.906000     -4.906000
 
# Band-Index    6
  29.54002     -2.862891     -2.862891
  29.40050     -2.876357     -2.876357
  29.26098     -2.920373     -2.920373
  29.12145     -2.987480     -2.987480
  28.98193     -3.079981     -3.079981
  28.84241     -3.190526     -3.190526
  28.70288     -3.313814     -3.313814
  28.56336     -3.448303     -3.448303
  28.42384     -3.593631     -3.593631
  28.28431     -3.744438     -3.744438
  28.14479     -3.900749     -3.900749
  28.00527     -4.059922     -4.059922
  27.86575     -4.225376     -4.225376
  27.72622     -4.386323     -4.386323
  27.58670     -4.545920     -4.545920
  27.44718     -4.585246     -4.585246
  27.30765     -4.556168     -4.556168
  27.16813     -4.532352     -4.532351
  27.02861     -4.515322     -4.515322
  26.88908     -4.506158     -4.506158
  26.74956     -4.506158     -4.506158
  26.61004     -4.515322     -4.515321
  26.47051     -4.532352     -4.532351
  26.33099     -4.556168     -4.556168
  26.19147     -4.585246     -4.585246
  26.05195     -4.545920     -4.545920
  25.91242     -4.386323     -4.386323
  25.77290     -4.225376     -4.225376
  25.63338     -4.059922     -4.059922
  25.49385     -3.900749     -3.900749
  25.35433     -3.744438     -3.744438
  25.21481     -3.593631     -3.593631
  25.07528     -3.448303     -3.448303
  24.93576     -3.313814     -3.313814
  24.79624     -3.190526     -3.190526
  24.65672     -3.079981     -3.079980
  24.51719     -2.987480     -2.987480
  24.37767     -2.920372     -2.920373
  24.23815     -2.876358     -2.876358
  24.09862     -2.862890     -2.862891
  24.09862     -2.862891     -2.862891
  23.92774     -2.885370     -2.885370
  23.75686     -2.951368     -2.951368
  23.58598     -3.055050     -3.055051
  23.41510     -3.187915     -3.187915
  23.24422     -3.340386     -3.340386
  23.07334     -3.506485     -3.506485
  22.90246     -3.680467     -3.680467
  22.73158     -3.858520     -3.858520
  22.56070     -4.033696     -4.033696
  22.38982     -4.201035     -4.201035
  22.21894     -4.343709     -4.343710
  22.04806     -4.447618     -4.447618
  21.87718     -4.495650     -4.495650
  21.70630     -4.495691     -4.495691
  21.53542     -4.464568     -4.464568
  21.36454     -4.414868     -4.414868
  21.19366     -4.357743     -4.357743
  21.02278     -4.311574     -4.311574
  20.85190     -4.315918     -4.315918
  20.68102     -4.373252     -4.373252
  20.51014     -4.451491     -4.451491
  20.33926     -4.535902     -4.535901
  20.16838     -4.622783     -4.622782
  19.99750     -4.708685     -4.708685
  19.82662     -4.751619     -4.751619
  19.65574     -4.770737     -4.770737
  19.48486     -4.783400     -4.783400
  19.31398     -4.791424     -4.791424
  19.14310     -4.794325     -4.794325
  18.97222     -4.792230     -4.792230
  18.80134     -4.787214     -4.787214
  18.63046     -4.776245     -4.776245
  18.45958     -4.761585     -4.761585
  18.28870     -4.744047     -4.744047
  18.11782     -4.724751     -4.724751
  17.94694     -4.705187     -4.705187
  17.77606     -4.687428     -4.687428
  17.60518     -4.673770     -4.673770
  17.43430     -4.667498     -4.667498
  17.43430     -4.667498     -4.667497
  17.22893     -4.662132     -4.662132
  17.02355     -4.663965     -4.663965
  16.81818     -4.672097     -4.672097
  16.61281     -4.684185     -4.684185
  16.40744     -4.700827     -4.700827
  16.20207     -4.718945     -4.718944
  15.99669     -4.736480     -4.736480
  15.79132     -4.749110     -4.749110
  15.58595     -4.725455     -4.725455
  15.38058     -4.582530     -4.582530
  15.17520     -4.399097     -4.399097
  14.96983     -4.218494     -4.218494
  14.76446     -4.049352     -4.049352
  14.55909     -3.903964     -3.903964
  14.35371     -3.784907     -3.784906
  14.14834     -3.694270     -3.694270
  13.94297     -3.633420     -3.633419
  13.73760     -3.605356     -3.605356
  13.53222     -3.619064     -3.619064
  13.32685     -3.680188     -3.680188
  13.12148     -3.784907     -3.784907
  12.91611     -3.922065     -3.922064
  12.71074     -4.080287     -4.080287
  12.50536     -4.253188     -4.253188
  12.29999     -4.432006     -4.432006
  12.09462     -4.607031     -4.607031
  11.88925     -4.725455     -4.725455
  11.68387     -4.745450     -4.745449
  11.47850     -4.747907     -4.747907
  11.27313     -4.750957     -4.750957
  11.06776     -4.760772     -4.760772
  10.86238     -4.777334     -4.777334
  10.65701     -4.802311     -4.802311
  10.45164     -4.836479     -4.836479
  10.24627     -4.878752     -4.878752
  10.04089     -4.929306     -4.929306
   9.83552     -4.983759     -4.983759
   9.63015     -5.031903     -5.031903
   9.42478     -5.052992     -5.052992
   9.42478     -5.052992     -5.052992
   9.34422     -5.052315     -5.052315
   9.26367     -5.050251     -5.050252
   9.18312     -5.046711     -5.046711
   9.10256     -5.041539     -5.041539
   9.02201     -5.034519     -5.034519
   8.94146     -5.025368     -5.025368
   8.86090     -5.013602     -5.013602
   8.78035     -4.998334     -4.998334
   8.69980     -4.979641     -4.979641
   8.61924     -4.956655     -4.956655
   8.53869     -4.929620     -4.929620
   8.45813     -4.899944     -4.899944
   8.37758     -4.870635     -4.870635
   8.29703     -4.845735     -4.845735
   8.21647     -4.830423     -4.830423
   8.13592     -4.824132     -4.824132
   8.05537     -4.823166     -4.823166
   7.97481     -4.824680     -4.824680
   7.89426     -4.827524     -4.827524
   7.81370     -4.831121     -4.831120
   7.73315     -4.835070     -4.835070
   7.65260     -4.839229     -4.839229
   7.57204     -4.843473     -4.843473
   7.49149     -4.847858     -4.847858
   7.41094     -4.852032     -4.852032
   7.33038     -4.856005     -4.856005
   7.24983     -4.860141     -4.860141
   7.16928     -4.863813     -4.863813
   7.08872     -4.867362     -4.867362
   7.00817     -4.870514     -4.870514
   6.92761     -4.873343     -4.873343
   6.84706     -4.875836     -4.875836
   6.76651     -4.877960     -4.877961
   6.68595     -4.879700     -4.879700
   6.60540     -4.880283     -4.880283
   6.52485     -4.881303     -4.881303
   6.44429     -4.881917     -4.881917
   6.36374     -4.881157     -4.881157
   6.28319     -4.881283     -4.881283
   6.28319     -4.881283     -4.881283
   6.12208     -4.881797     -4.881797
   5.96097     -4.879317     -4.879317
   5.79986     -4.874901     -4.874901
   5.63876     -4.869069     -4.869069
   5.47765     -4.862368     -4.862368
   5.31654     -4.854637     -4.854637
   5.15543     -4.848638     -4.848638
   4.99433     -4.842110     -4.842110
   4.83322     -4.837576     -4.837576
   4.67211     -4.829640     -4.829640
   4.51100     -4.819743     -4.819743
   4.34990     -4.810034     -4.810034
   4.18879     -4.801494     -4.801493
   4.02768     -4.791958     -4.791958
   3.86658     -4.784647     -4.784646
   3.70547     -4.778689     -4.778689
   3.54436     -4.774140     -4.774140
   3.38325     -4.771183     -4.771183
   3.22215     -4.770230     -4.770230
   3.06104     -4.770846     -4.770846
   2.89993     -4.773026     -4.773026
   2.73882     -4.777191     -4.777191
   2.57772     -4.782932     -4.782932
   2.41661     -4.790082     -4.790082
   2.25550     -4.747769     -4.747769
   2.09440     -4.668040     -4.668040
   1.93329     -4.554113     -4.554113
   1.77218     -4.411429     -4.411429
   1.61107     -4.252252     -4.252252
   1.44997     -4.081328     -4.081328
   1.28886     -3.903445     -3.903445
   1.12775     -3.722657     -3.722657
   0.96664     -3.544857     -3.544857
   0.80554     -3.371427     -3.371427
   0.64443     -3.211959     -3.211960
   0.48332     -3.070386     -3.070386
   0.32221     -2.958755     -2.958755
   0.16111     -2.888035     -2.888034
   0.00000     -2.862891     -2.862891
 
# Band-Index    7
   0.00000     -2.862890     -2.862890
   0.16111     -2.869619     -2.869619
   0.32221     -2.888624     -2.888624
   0.48332     -2.918189     -2.918189
   0.64443     -2.957680     -2.957680
   0.80554     -3.003546     -3.003546
   0.96664     -3.053929     -3.053929
   1.12775     -3.105391     -3.105391
   1.28886     -3.160176     -3.160175
   1.44997     -3.215385     -3.215385
   1.61107     -3.270180     -3.270180
   1.77218     -3.323892     -3.323891
   1.93329     -3.377744     -3.377744
   2.09440     -3.427867     -3.427866
   2.25550     -3.475568     -3.475568
   2.41661     -3.520593     -3.520593
   2.57772     -3.562713     -3.562713
   2.73882     -3.601774     -3.601773
   2.89993     -3.640502     -3.640502
   3.06104     -3.673642     -3.673641
   3.22215     -3.703271     -3.703271
   3.38325     -3.729134     -3.729133
   3.54436     -3.752600     -3.752600
   3.70547     -3.773154     -3.773154
   3.86658     -3.786964     -3.786964
   4.02768     -3.802300     -3.802300
   4.18879     -3.815300     -3.815300
   4.34990     -3.827465     -3.827464
   4.51100     -3.836573     -3.836572
   4.67211     -3.844016     -3.844016
   4.83322     -3.847055     -3.847055
   4.99433     -3.851802     -3.851802
   5.15543     -3.855495     -3.855495
   5.31654     -3.858309     -3.858309
   5.47765     -3.860404     -3.860404
   5.63876     -3.861408     -3.861407
   5.79986     -3.862490     -3.862490
   5.96097     -3.863194     -3.863194
   6.12208     -3.863476     -3.863476
   6.28319     -3.863605     -3.863605
   6.28319     -3.863605     -3.863605
   6.36374     -3.866530     -3.866530
   6.44429     -3.875681     -3.875681
   6.52485     -3.891951     -3.891952
   6.60540     -3.912489     -3.912489
   6.68595     -3.940289     -3.940289
   6.76651     -3.969953     -3.969952
   6.84706     -4.003228     -4.003228
   6.92761     -4.039550     -4.039550
   7.00817     -4.078553     -4.078553
   7.08872     -4.119488     -4.119489
   7.16928     -4.162083     -4.162083
   7.24983     -4.206901     -4.206901
   7.33038     -4.251814     -4.251814
   7.41094     -4.297464     -4.297464
   7.49149     -4.343516     -4.343516
   7.57204     -4.389889     -4.389889
   7.65260     -4.436302     -4.436302
   7.73315     -4.482527     -4.482527
   7.81370     -4.528313     -4.528313
   7.89426     -4.572660     -4.572660
   7.97481     -4.616553     -4.616553
   8.05537     -4.658500     -4.658500
   8.13592     -4.696712     -4.696712
   8.21647     -4.729051     -4.729051
   8.29703     -4.751074     -4.751074
   8.37758     -4.762460     -4.762460
   8.45813     -4.765231     -4.765231
   8.53869     -4.765691     -4.765691
   8.61924     -4.764750     -4.764750
   8.69980     -4.763368     -4.763368
   8.78035     -4.762394     -4.762394
   8.86090     -4.763200     -4.763200
   8.94146     -4.768859     -4.768859
   9.02201     -4.778381     -4.778381
   9.10256     -4.787643     -4.787643
   9.18312     -4.795354     -4.795354
   9.26367     -4.801063     -4.801063
   9.34422     -4.804588     -4.804588
   9.42478     -4.806134     -4.806134
   9.42478     -4.806134     -4.806134
   9.63015     -4.732957     -4.732957
   9.83552     -4.689976     -4.689976
  10.04089     -4.639475     -4.639475
  10.24627     -4.578077     -4.578077
  10.45164     -4.506497     -4.506497
  10.65701     -4.425734     -4.425734
  10.86238     -4.336076     -4.336076
  11.06776     -4.238663     -4.238663
  11.27313     -4.134377     -4.134376
  11.47850     -4.024418     -4.024418
  11.68387     -3.909992     -3.909992
  11.88925     -3.791746     -3.791746
  12.09462     -3.672822     -3.672822
  12.29999     -3.555033     -3.555033
  12.50536     -3.443263     -3.443263
  12.71074     -3.359252     -3.359252
  12.91611     -3.319423     -3.319423
  13.12148     -3.288731     -3.288731
  13.32685     -3.260144     -3.260144
  13.53222     -3.227647     -3.227647
  13.73760     -3.193015     -3.193016
  13.94297     -3.169946     -3.169946
  14.14834     -3.209684     -3.209684
  14.35371     -3.288731     -3.288730
  14.55909     -3.376074     -3.376074
  14.76446     -3.464197     -3.464197
  14.96983     -3.549536     -3.549536
  15.17520     -3.632349     -3.632349
  15.38058     -3.712197     -3.712197
  15.58595     -3.791746     -3.791746
  15.79132     -3.873697     -3.873697
  15.99669     -3.960645     -3.960645
  16.20207     -4.052911     -4.052911
  16.40744     -4.149875     -4.149875
  16.61281     -4.248034     -4.248034
  16.81818     -4.344664     -4.344664
  17.02355     -4.435985     -4.435985
  17.22893     -4.519717     -4.519717
  17.43430     -4.593961     -4.593961
  17.43430     -4.593961     -4.593961
  17.60518     -4.547152     -4.547152
  17.77606     -4.488339     -4.488338
  17.94694     -4.417561     -4.417562
  18.11782     -4.336485     -4.336485
  18.28870     -4.245210     -4.245210
  18.45958     -4.147493     -4.147493
  18.63046     -4.045744     -4.045744
  18.80134     -3.944890     -3.944890
  18.97222     -3.847996     -3.847996
  19.14310     -3.763863     -3.763863
  19.31398     -3.706600     -3.706600
  19.48486     -3.693694     -3.693695
  19.65574     -3.688858     -3.688858
  19.82662     -3.693320     -3.693320
  19.99750     -3.705312     -3.705312
  20.16838     -3.744134     -3.744134
  20.33926     -3.820227     -3.820226
  20.51014     -3.906287     -3.906288
  20.68102     -3.988936     -3.988935
  20.85190     -4.050307     -4.050307
  21.02278     -4.053297     -4.053297
  21.19366     -3.998454     -3.998454
  21.36454     -3.919021     -3.919021
  21.53542     -3.870274     -3.870274
  21.70630     -3.830739     -3.830739
  21.87718     -3.774681     -3.774681
  22.04806     -3.705468     -3.705468
  22.21894     -3.626414     -3.626414
  22.38982     -3.540813     -3.540813
  22.56070     -3.451481     -3.451481
  22.73158     -3.359185     -3.359185
  22.90246     -3.266865     -3.266865
  23.07334     -3.180078     -3.180077
  23.24422     -3.095920     -3.095919
  23.41510     -3.019206     -3.019206
  23.58598     -2.954479     -2.954479
  23.75686     -2.905584     -2.905584
  23.92774     -2.873816     -2.873816
  24.09862     -2.862890     -2.862890
  24.09862     -2.862890     -2.862890
  24.23815     -2.868594     -2.868594
  24.37767     -2.885452     -2.885452
  24.51719     -2.911794     -2.911794
  24.65672     -2.948505     -2.948505
  24.79624     -2.993247     -2.993247
  24.93576     -3.044403     -3.044403
  25.07528     -3.100137     -3.100137
  25.21481     -3.160713     -3.160713
  25.35433     -3.222820     -3.222820
  25.49385     -3.287286     -3.287286
  25.63338     -3.349699     -3.349699
  25.77290     -3.413279     -3.413279
  25.91242     -3.474887     -3.474887
  26.05195     -3.532909     -3.532909
  26.19147     -3.585833     -3.585833
  26.33099     -3.631683     -3.631683
  26.47051     -3.668943     -3.668943
  26.61004     -3.696308     -3.696307
  26.74956     -3.710028     -3.710028
  26.88908     -3.710028     -3.710028
  27.02861     -3.696308     -3.696307
  27.16813     -3.668943     -3.668943
  27.30765     -3.631683     -3.631683
  27.44718     -3.585833     -3.585833
  27.58670     -3.532909     -3.532909
  27.72622     -3.474887     -3.474887
  27.86575     -3.413279     -3.413279
  28.00527     -3.349699     -3.349699
  28.14479     -3.287286     -3.287286
  28.28431     -3.222820     -3.222820
  28.42384     -3.160713     -3.160713
  28.56336     -3.100137     -3.100137
  28.70288     -3.044403     -3.044403
  28.84241     -2.993247     -2.993247
  28.98193     -2.948505     -2.948505
  29.12145     -2.911794     -2.911794
  29.26098     -2.885452     -2.885452
  29.40050     -2.868594     -2.868594
  29.54002     -2.862890     -2.862890
 
# Band-Index    8
  29.54002     -2.861304     -2.861304
  29.40050     -2.868593     -2.868594
  29.26098     -2.885451     -2.885452
  29.12145     -2.911793     -2.911794
  28.98193     -2.948505     -2.948505
  28.84241     -2.993246     -2.993247
  28.70288     -3.044403     -3.044403
  28.56336     -3.100136     -3.100136
  28.42384     -3.160712     -3.160712
  28.28431     -3.222819     -3.222819
  28.14479     -3.287286     -3.287286
  28.00527     -3.349697     -3.349698
  27.86575     -3.413279     -3.413279
  27.72622     -3.474886     -3.474886
  27.58670     -3.532909     -3.532908
  27.44718     -3.585833     -3.585833
  27.30765     -3.631683     -3.631683
  27.16813     -3.668943     -3.668943
  27.02861     -3.696307     -3.696301
  26.88908     -3.710028     -3.710028
  26.74956     -3.710028     -3.710028
  26.61004     -3.696307     -3.696307
  26.47051     -3.668943     -3.668943
  26.33099     -3.631683     -3.631683
  26.19147     -3.585833     -3.585833
  26.05195     -3.532909     -3.532909
  25.91242     -3.474886     -3.474886
  25.77290     -3.413279     -3.413279
  25.63338     -3.349698     -3.349699
  25.49385     -3.287286     -3.287286
  25.35433     -3.222819     -3.222819
  25.21481     -3.160712     -3.160712
  25.07528     -3.100136     -3.100137
  24.93576     -3.044403     -3.044403
  24.79624     -2.993247     -2.993246
  24.65672     -2.948505     -2.948505
  24.51719     -2.911794     -2.911793
  24.37767     -2.885451     -2.885451
  24.23815     -2.868593     -2.868594
  24.09862     -2.861305     -2.861305
  24.09862     -2.861305     -2.861305
  23.92774     -2.869384     -2.869384
  23.75686     -2.890211     -2.890212
  23.58598     -2.922679     -2.922679
  23.41510     -2.965281     -2.965280
  23.24422     -3.019618     -3.019619
  23.07334     -3.081888     -3.081888
  22.90246     -3.149115     -3.149114
  22.73158     -3.223715     -3.223715
  22.56070     -3.302841     -3.302841
  22.38982     -3.384611     -3.384611
  22.21894     -3.470450     -3.470450
  22.04806     -3.559933     -3.559933
  21.87718     -3.649557     -3.649557
  21.70630     -3.739809     -3.739809
  21.53542     -3.829393     -3.829392
  21.36454     -3.890496     -3.890496
  21.19366     -3.891741     -3.891741
  21.02278     -3.876640     -3.876640
  20.85190     -3.850521     -3.850521
  20.68102     -3.818245     -3.818245
  20.51014     -3.784263     -3.784264
  20.33926     -3.751997     -3.751996
  20.16838     -3.725625     -3.725626
  19.99750     -3.684107     -3.684107
  19.82662     -3.648452     -3.648452
  19.65574     -3.639455     -3.639455
  19.48486     -3.654918     -3.654918
  19.31398     -3.697048     -3.697048
  19.14310     -3.728930     -3.728929
  18.97222     -3.759120     -3.759120
  18.80134     -3.797872     -3.797872
  18.63046     -3.842067     -3.842067
  18.45958     -3.890003     -3.890003
  18.28870     -3.939624     -3.939624
  18.11782     -3.989296     -3.989296
  17.94694     -4.035958     -4.035958
  17.77606     -4.077826     -4.077826
  17.60518     -4.111292     -4.111292
  17.43430     -4.133848     -4.133848
  17.43430     -4.133847     -4.133848
  17.22893     -4.114540     -4.114539
  17.02355     -4.085891     -4.085891
  16.81818     -4.047366     -4.047366
  16.61281     -3.999615     -3.999615
  16.40744     -3.941828     -3.941828
  16.20207     -3.874123     -3.874123
  15.99669     -3.796665     -3.796665
  15.79132     -3.708235     -3.708235
  15.58595     -3.615048     -3.615048
  15.38058     -3.520219     -3.520219
  15.17520     -3.430070     -3.430070
  14.96983     -3.346450     -3.346450
  14.76446     -3.274404     -3.274404
  14.55909     -3.216678     -3.216678
  14.35371     -3.178368     -3.178368
  14.14834     -3.161190     -3.161191
  13.94297     -3.146984     -3.146984
  13.73760     -3.112595     -3.112595
  13.53222     -3.106891     -3.106891
  13.32685     -3.129665     -3.129665
  13.12148     -3.178368     -3.178368
  12.91611     -3.249170     -3.249169
  12.71074     -3.336691     -3.336692
  12.50536     -3.404275     -3.404275
  12.29999     -3.465348     -3.465347
  12.09462     -3.536811     -3.536811
  11.88925     -3.615049     -3.615048
  11.68387     -3.702820     -3.702819
  11.47850     -3.795885     -3.795885
  11.27313     -3.892648     -3.892648
  11.06776     -3.992836     -3.992836
  10.86238     -4.095247     -4.095246
  10.65701     -4.200133     -4.200133
  10.45164     -4.303800     -4.303799
  10.24627     -4.406446     -4.406446
  10.04089     -4.508620     -4.508620
   9.83552     -4.608209     -4.608209
   9.63015     -4.700491     -4.700491
   9.42478     -4.748313     -4.748314
   9.42478     -4.748313     -4.748314
   9.34422     -4.748023     -4.748023
   9.26367     -4.748206     -4.748206
   9.18312     -4.748880     -4.748880
   9.10256     -4.749654     -4.749655
   9.02201     -4.750170     -4.750170
   8.94146     -4.749071     -4.749071
   8.86090     -4.742647     -4.742647
   8.78035     -4.729637     -4.729637
   8.69980     -4.712679     -4.712679
   8.61924     -4.693781     -4.693780
   8.53869     -4.672929     -4.672929
   8.45813     -4.650213     -4.650213
   8.37758     -4.625911     -4.625911
   8.29703     -4.598606     -4.598606
   8.21647     -4.570419     -4.570420
   8.13592     -4.540401     -4.540401
   8.05537     -4.510043     -4.510043
   7.97481     -4.476708     -4.476708
   7.89426     -4.441823     -4.441823
   7.81370     -4.406571     -4.406571
   7.73315     -4.369245     -4.369245
   7.65260     -4.331006     -4.331006
   7.57204     -4.292131     -4.292131
   7.49149     -4.253001     -4.253001
   7.41094     -4.214545     -4.214545
   7.33038     -4.175632     -4.175632
   7.24983     -4.137613     -4.137614
   7.16928     -4.099433     -4.099433
   7.08872     -4.063960     -4.063960
   7.00817     -4.030305     -4.030305
   6.92761     -3.996103     -3.996103
   6.84706     -3.967407     -3.967407
   6.76651     -3.941688     -3.941689
   6.68595     -3.919280     -3.919280
   6.60540     -3.899403     -3.899403
   6.52485     -3.884475     -3.884475
   6.44429     -3.871597     -3.871597
   6.36374     -3.864950     -3.864950
   6.28319     -3.862564     -3.862564
   6.28319     -3.862564     -3.862564
   6.12208     -3.862387     -3.862386
   5.96097     -3.861955     -3.861955
   5.79986     -3.860973     -3.860973
   5.63876     -3.859448     -3.859447
   5.47765     -3.857788     -3.857788
   5.31654     -3.854745     -3.854745
   5.15543     -3.850624     -3.850624
   4.99433     -3.845179     -3.845179
   4.83322     -3.838164     -3.838164
   4.67211     -3.832317     -3.832317
   4.51100     -3.821433     -3.821433
   4.34990     -3.808293     -3.808293
   4.18879     -3.791616     -3.791617
   4.02768     -3.773776     -3.773776
   3.86658     -3.753508     -3.753508
   3.70547     -3.734998     -3.734997
   3.54436     -3.710149     -3.710149
   3.38325     -3.683120     -3.683120
   3.22215     -3.654729     -3.654729
   3.06104     -3.623652     -3.623652
   2.89993     -3.590227     -3.590227
   2.73882     -3.552409     -3.552409
   2.57772     -3.515325     -3.515325
   2.41661     -3.476036     -3.476036
   2.25550     -3.434500     -3.434500
   2.09440     -3.390686     -3.390686
   1.93329     -3.344557     -3.344557
   1.77218     -3.294703     -3.294703
   1.61107     -3.244807     -3.244807
   1.44997     -3.193577     -3.193577
   1.28886     -3.141660     -3.141660
   1.12775     -3.089909     -3.089910
   0.96664     -3.041316     -3.041315
   0.80554     -2.993618     -2.993618
   0.64443     -2.950299     -2.950299
   0.48332     -2.913154     -2.913154
   0.32221     -2.885603     -2.885603
   0.16111     -2.867968     -2.867968
   0.00000     -2.861305     -2.861305
 
# Band-Index    9
   0.00000     -2.044368     -2.044368
   0.16111     -2.042197     -2.042197
   0.32221     -2.036800     -2.036800
   0.48332     -2.030922     -2.030922
   0.64443     -2.027372     -2.027372
   0.80554     -2.027499     -2.027499
   0.96664     -2.031692     -2.031692
   1.12775     -2.039603     -2.039603
   1.28886     -2.050830     -2.050830
   1.44997     -2.064941     -2.064941
   1.61107     -2.081570     -2.081570
   1.77218     -2.100446     -2.100446
   1.93329     -2.121433     -2.121433
   2.09440     -2.144230     -2.144230
   2.25550     -2.168559     -2.168559
   2.41661     -2.194330     -2.194330
   2.57772     -2.221409     -2.221409
   2.73882     -2.249425     -2.249425
   2.89993     -2.278395     -2.278395
   3.06104     -2.307937     -2.307937
   3.22215     -2.337680     -2.337680
   3.38325     -2.367306     -2.367306
   3.54436     -2.397076     -2.397076
   3.70547     -2.426540     -2.426540
   3.86658     -2.455277     -2.455277
   4.02768     -2.483509     -2.483509
   4.18879     -2.510839     -2.510839
   4.34990     -2.537040     -2.537040
   4.51100     -2.561973     -2.561973
   4.67211     -2.585433     -2.585433
   4.83322     -2.606678     -2.606678
   4.99433     -2.626682     -2.626682
   5.15543     -2.644745     -2.644745
   5.31654     -2.660680     -2.660680
   5.47765     -2.674395     -2.674395
   5.63876     -2.685750     -2.685750
   5.79986     -2.694686     -2.694686
   5.96097     -2.701099     -2.701099
   6.12208     -2.704898     -2.704898
   6.28319     -2.706165     -2.706165
   6.28319     -2.706165     -2.706165
   6.36374     -2.703254     -2.703254
   6.44429     -2.694743     -2.694743
   6.52485     -2.680873     -2.680873
   6.60540     -2.661872     -2.661872
   6.68595     -2.638548     -2.638548
   6.76651     -2.611409     -2.611409
   6.84706     -2.581141     -2.581141
   6.92761     -2.548325     -2.548325
   7.00817     -2.513530     -2.513530
   7.08872     -2.477170     -2.477170
   7.16928     -2.439618     -2.439618
   7.24983     -2.401990     -2.401990
   7.33038     -2.363339     -2.363339
   7.41094     -2.324648     -2.324648
   7.49149     -2.285959     -2.285959
   7.57204     -2.247538     -2.247538
   7.65260     -2.209606     -2.209606
   7.73315     -2.172296     -2.172296
   7.81370     -2.135743     -2.135743
   7.89426     -2.100195     -2.100195
   7.97481     -2.065512     -2.065512
   8.05537     -2.031916     -2.031916
   8.13592     -1.999189     -1.999189
   8.21647     -1.968067     -1.968067
   8.29703     -1.938318     -1.938318
   8.37758     -1.910086     -1.910086
   8.45813     -1.883287     -1.883287
   8.53869     -1.858305     -1.858305
   8.61924     -1.835146     -1.835146
   8.69980     -1.813932     -1.813932
   8.78035     -1.794815     -1.794815
   8.86090     -1.777882     -1.777882
   8.94146     -1.763136     -1.763136
   9.02201     -1.750692     -1.750692
   9.10256     -1.740544     -1.740544
   9.18312     -1.732698     -1.732698
   9.26367     -1.727127     -1.727127
   9.34422     -1.723807     -1.723807
   9.42478     -1.722764     -1.722764
   9.42478     -1.722764     -1.722764
   9.63015     -1.743282     -1.743282
   9.83552     -1.765199     -1.765199
  10.04089     -1.787997     -1.787997
  10.24627     -1.810927     -1.810927
  10.45164     -1.833914     -1.833914
  10.65701     -1.856504     -1.856504
  10.86238     -1.878572     -1.878572
  11.06776     -1.900016     -1.900016
  11.27313     -1.921174     -1.921174
  11.47850     -1.941668     -1.941668
  11.68387     -1.961074     -1.961074
  11.88925     -1.978809     -1.978809
  12.09462     -1.993461     -1.993461
  12.29999     -2.003023     -2.003023
  12.50536     -2.005955     -2.005955
  12.71074     -2.000796     -2.000796
  12.91611     -1.987261     -1.987261
  13.12148     -1.967855     -1.967855
  13.32685     -1.949546     -1.949546
  13.53222     -1.953007     -1.953007
  13.73760     -1.976736     -1.976736
  13.94297     -1.991863     -1.991863
  14.14834     -1.987934     -1.987934
  14.35371     -1.967855     -1.967855
  14.55909     -1.943119     -1.943119
  14.76446     -1.928763     -1.928763
  14.96983     -1.929821     -1.929821
  15.17520     -1.941153     -1.941153
  15.38058     -1.958298     -1.958298
  15.58595     -1.978809     -1.978809
  15.79132     -2.001017     -2.001017
  15.99669     -2.024339     -2.024339
  16.20207     -2.047809     -2.047809
  16.40744     -2.071317     -2.071317
  16.61281     -2.094470     -2.094470
  16.81818     -2.117358     -2.117358
  17.02355     -2.139464     -2.139464
  17.22893     -2.161049     -2.161049
  17.43430     -2.182147     -2.182147
  17.43430     -2.182147     -2.182147
  17.60518     -2.169759     -2.169759
  17.77606     -2.164317     -2.164317
  17.94694     -2.164789     -2.164789
  18.11782     -2.171042     -2.171042
  18.28870     -2.182597     -2.182597
  18.45958     -2.198790     -2.198790
  18.63046     -2.218810     -2.218810
  18.80134     -2.241484     -2.241484
  18.97222     -2.265434     -2.265434
  19.14310     -2.288533     -2.288533
  19.31398     -2.307731     -2.307731
  19.48486     -2.320002     -2.320002
  19.65574     -2.322810     -2.322810
  19.82662     -2.313831     -2.313831
  19.99750     -2.294656     -2.294656
  20.16838     -2.267649     -2.267649
  20.33926     -2.235363     -2.235363
  20.51014     -2.201065     -2.201065
  20.68102     -2.166496     -2.166496
  20.85190     -2.132817     -2.132817
  21.02278     -2.100973     -2.100973
  21.19366     -2.071089     -2.071089
  21.36454     -2.044477     -2.044477
  21.53542     -2.020890     -2.020890
  21.70630     -2.000795     -2.000795
  21.87718     -1.984184     -1.984184
  22.04806     -1.971233     -1.971233
  22.21894     -1.962128     -1.962128
  22.38982     -1.957123     -1.957123
  22.56070     -1.956074     -1.956074
  22.73158     -1.971688     -1.971688
  22.90246     -1.986088     -1.986088
  23.07334     -1.999388     -1.999388
  23.24422     -2.011252     -2.011252
  23.41510     -2.021891     -2.021891
  23.58598     -2.031060     -2.031060
  23.75686     -2.038242     -2.038242
  23.92774     -2.042798     -2.042798
  24.09862     -2.044368     -2.044368
  24.09862     -2.044368     -2.044368
  24.23815     -2.043876     -2.043876
  24.37767     -2.042567     -2.042567
  24.51719     -2.040150     -2.040150
  24.65672     -2.037184     -2.037184
  24.79624     -2.033688     -2.033688
  24.93576     -2.029796     -2.029796
  25.07528     -2.025645     -2.025645
  25.21481     -2.021418     -2.021418
  25.35433     -2.017118     -2.017118
  25.49385     -2.012746     -2.012746
  25.63338     -2.008552     -2.008552
  25.77290     -2.004695     -2.004695
  25.91242     -2.001109     -2.001109
  26.05195     -1.997887     -1.997887
  26.19147     -1.995094     -1.995094
  26.33099     -1.992696     -1.992696
  26.47051     -1.990921     -1.990921
  26.61004     -1.989797     -1.989797
  26.74956     -1.989185     -1.989185
  26.88908     -1.989185     -1.989185
  27.02861     -1.989797     -1.989797
  27.16813     -1.990921     -1.990921
  27.30765     -1.992696     -1.992696
  27.44718     -1.995094     -1.995094
  27.58670     -1.997887     -1.997887
  27.72622     -2.001109     -2.001109
  27.86575     -2.004695     -2.004695
  28.00527     -2.008552     -2.008552
  28.14479     -2.012746     -2.012746
  28.28431     -2.017118     -2.017118
  28.42384     -2.021418     -2.021418
  28.56336     -2.025645     -2.025645
  28.70288     -2.029796     -2.029796
  28.84241     -2.033688     -2.033688
  28.98193     -2.037184     -2.037184
  29.12145     -2.040150     -2.040150
  29.26098     -2.042567     -2.042567
  29.40050     -2.043876     -2.043876
  29.54002     -2.044368     -2.044368
 
# Band-Index   10
  29.54002     -2.044368     -2.044368
  29.40050     -2.043876     -2.043876
  29.26098     -2.042567     -2.042567
  29.12145     -2.040150     -2.040150
  28.98193     -2.037184     -2.037184
  28.84241     -2.033688     -2.033688
  28.70288     -2.029796     -2.029796
  28.56336     -2.025645     -2.025645
  28.42384     -2.021418     -2.021418
  28.28431     -2.017118     -2.017118
  28.14479     -2.012746     -2.012746
  28.00527     -2.008552     -2.008552
  27.86575     -2.004695     -2.004695
  27.72622     -2.001109     -2.001109
  27.58670     -1.997887     -1.997887
  27.44718     -1.995094     -1.995094
  27.30765     -1.992696     -1.992696
  27.16813     -1.990921     -1.990921
  27.02861     -1.989797     -1.989797
  26.88908     -1.989185     -1.989185
  26.74956     -1.989185     -1.989185
  26.61004     -1.989797     -1.989797
  26.47051     -1.990921     -1.990921
  26.33099     -1.992696     -1.992696
  26.19147     -1.995094     -1.995094
  26.05195     -1.997887     -1.997887
  25.91242     -2.001109     -2.001109
  25.77290     -2.004695     -2.004695
  25.63338     -2.008552     -2.008552
  25.49385     -2.012746     -2.012746
  25.35433     -2.017118     -2.017118
  25.21481     -2.021418     -2.021418
  25.07528     -2.025645     -2.025645
  24.93576     -2.029796     -2.029796
  24.79624     -2.033688     -2.033688
  24.65672     -2.037184     -2.037184
  24.51719     -2.040150     -2.040150
  24.37767     -2.042567     -2.042567
  24.23815     -2.043876     -2.043876
  24.09862     -2.044368     -2.044368
  24.09862     -2.044368     -2.044368
  23.92774     -2.040942     -2.040942
  23.75686     -2.031189     -2.031189
  23.58598     -2.017568     -2.017568
  23.41510     -2.002350     -2.002350
  23.24422     -1.987743     -1.987743
  23.07334     -1.974969     -1.974969
  22.90246     -1.965043     -1.965043
  22.73158     -1.958626     -1.958626
  22.56070     -1.955984     -1.955984
  22.38982     -1.938908     -1.938908
  22.21894     -1.920746     -1.920746
  22.04806     -1.901359     -1.901359
  21.87718     -1.880599     -1.880599
  21.70630     -1.858383     -1.858383
  21.53542     -1.834933     -1.834933
  21.36454     -1.810164     -1.810164
  21.19366     -1.784108     -1.784108
  21.02278     -1.756791     -1.756791
  20.85190     -1.728404     -1.728404
  20.68102     -1.699144     -1.699144
  20.51014     -1.669382     -1.669382
  20.33926     -1.639723     -1.639723
  20.16838     -1.611361     -1.611361
  19.99750     -1.584407     -1.584407
  19.82662     -1.560279     -1.560279
  19.65574     -1.539779     -1.539779
  19.48486     -1.523232     -1.523232
  19.31398     -1.510687     -1.510687
  19.14310     -1.501780     -1.501780
  18.97222     -1.495246     -1.495246
  18.80134     -1.490906     -1.490906
  18.63046     -1.487382     -1.487382
  18.45958     -1.484072     -1.484072
  18.28870     -1.480605     -1.480605
  18.11782     -1.476826     -1.476826
  17.94694     -1.472647     -1.472647
  17.77606     -1.468168     -1.468168
  17.60518     -1.463465     -1.463465
  17.43430     -1.458792     -1.458792
  17.43430     -1.458792     -1.458792
  17.22893     -1.470818     -1.470818
  17.02355     -1.485041     -1.485041
  16.81818     -1.501397     -1.501397
  16.61281     -1.520111     -1.520111
  16.40744     -1.541282     -1.541282
  16.20207     -1.565277     -1.565277
  15.99669     -1.592063     -1.592063
  15.79132     -1.621600     -1.621600
  15.58595     -1.654255     -1.654255
  15.38058     -1.689888     -1.689888
  15.17520     -1.728305     -1.728305
  14.96983     -1.767491     -1.767491
  14.76446     -1.802393     -1.802393
  14.55909     -1.825043     -1.825043
  14.35371     -1.835738     -1.835738
  14.14834     -1.843046     -1.843046
  13.94297     -1.853962     -1.853962
  13.73760     -1.869355     -1.869355
  13.53222     -1.882856     -1.882856
  13.32685     -1.870965     -1.870965
  13.12148     -1.835738     -1.835738
  12.91611     -1.797419     -1.797419
  12.71074     -1.762206     -1.762206
  12.50536     -1.730884     -1.730884
  12.29999     -1.703500     -1.703500
  12.09462     -1.678482     -1.678482
  11.88925     -1.654255     -1.654255
  11.68387     -1.630422     -1.630422
  11.47850     -1.606437     -1.606437
  11.27313     -1.581841     -1.581841
  11.06776     -1.557565     -1.557565
  10.86238     -1.533852     -1.533852
  10.65701     -1.511335     -1.511335
  10.45164     -1.489959     -1.489959
  10.24627     -1.470556     -1.470556
  10.04089     -1.453948     -1.453948
   9.83552     -1.439895     -1.439895
   9.63015     -1.428123     -1.428123
   9.42478     -1.419651     -1.419651
   9.42478     -1.419651     -1.419651
   9.34422     -1.420341     -1.420341
   9.26367     -1.422471     -1.422471
   9.18312     -1.425813     -1.425813
   9.10256     -1.429924     -1.429924
   9.02201     -1.434414     -1.434414
   8.94146     -1.438929     -1.438929
   8.86090     -1.443215     -1.443215
   8.78035     -1.447038     -1.447038
   8.69980     -1.450033     -1.450033
   8.61924     -1.452618     -1.452618
   8.53869     -1.454518     -1.454518
   8.45813     -1.455756     -1.455756
   8.37758     -1.456500     -1.456500
   8.29703     -1.456461     -1.456461
   8.21647     -1.456040     -1.456040
   8.13592     -1.455203     -1.455203
   8.05537     -1.454340     -1.454340
   7.97481     -1.452880     -1.452880
   7.89426     -1.451216     -1.451216
   7.81370     -1.449256     -1.449256
   7.73315     -1.447387     -1.447387
   7.65260     -1.445487     -1.445487
   7.57204     -1.443605     -1.443605
   7.49149     -1.441799     -1.441799
   7.41094     -1.440087     -1.440087
   7.33038     -1.438409     -1.438409
   7.24983     -1.436989     -1.436989
   7.16928     -1.435615     -1.435615
   7.08872     -1.434518     -1.434518
   7.00817     -1.433502     -1.433502
   6.92761     -1.432606     -1.432606
   6.84706     -1.431899     -1.431899
   6.76651     -1.431329     -1.431329
   6.68595     -1.430882     -1.430882
   6.60540     -1.430519     -1.430519
   6.52485     -1.430272     -1.430272
   6.44429     -1.430029     -1.430029
   6.36374     -1.429846     -1.429846
   6.28319     -1.429816     -1.429816
   6.28319     -1.429816     -1.429816
   6.12208     -1.430304     -1.430304
   5.96097     -1.431258     -1.431258
   5.79986     -1.432800     -1.432800
   5.63876     -1.434950     -1.434950
   5.47765     -1.437714     -1.437714
   5.31654     -1.440973     -1.440973
   5.15543     -1.444908     -1.444908
   4.99433     -1.449303     -1.449303
   4.83322     -1.454269     -1.454269
   4.67211     -1.460001     -1.460001
   4.51100     -1.465987     -1.465987
   4.34990     -1.472421     -1.472421
   4.18879     -1.478922     -1.478922
   4.02768     -1.486180     -1.486180
   3.86658     -1.494073     -1.494073
   3.70547     -1.502909     -1.502909
   3.54436     -1.512145     -1.512145
   3.38325     -1.522199     -1.522199
   3.22215     -1.533728     -1.533728
   3.06104     -1.546026     -1.546026
   2.89993     -1.559406     -1.559406
   2.73882     -1.574674     -1.574674
   2.57772     -1.592020     -1.592020
   2.41661     -1.611541     -1.611541
   2.25550     -1.633433     -1.633433
   2.09440     -1.657952     -1.657952
   1.93329     -1.684980     -1.684980
   1.77218     -1.714648     -1.714648
   1.61107     -1.746873     -1.746873
   1.44997     -1.781411     -1.781411
   1.28886     -1.817867     -1.817867
   1.12775     -1.855680     -1.855680
   0.96664     -1.893921     -1.893921
   0.80554     -1.931489     -1.931489
   0.64443     -1.966763     -1.966763
   0.48332     -1.997864     -1.997864
   0.32221     -2.022837     -2.022837
   0.16111     -2.038980     -2.038980
   0.00000     -2.044368     -2.044368
 
# Band-Index   11
   0.00000     -1.848007     -1.848007
   0.16111     -1.845107     -1.845107
   0.32221     -1.835766     -1.835766
   0.48332     -1.819606     -1.819606
   0.64443     -1.796814     -1.796814
   0.80554     -1.767972     -1.767972
   0.96664     -1.734410     -1.734410
   1.12775     -1.697989     -1.697989
   1.28886     -1.659788     -1.659788
   1.44997     -1.620796     -1.620796
   1.61107     -1.581568     -1.581568
   1.77218     -1.542334     -1.542334
   1.93329     -1.502843     -1.502843
   2.09440     -1.463591     -1.463591
   2.25550     -1.423877     -1.423877
   2.41661     -1.384289     -1.384289
   2.57772     -1.345370     -1.345370
   2.73882     -1.308102     -1.308102
   2.89993     -1.275082     -1.275082
   3.06104     -1.249932     -1.249932
   3.22215     -1.235186     -1.235186
   3.38325     -1.231566     -1.231566
   3.54436     -1.237486     -1.237486
   3.70547     -1.248297     -1.248297
   3.86658     -1.260042     -1.260042
   4.02768     -1.271231     -1.271231
   4.18879     -1.280304     -1.280304
   4.34990     -1.286618     -1.286618
   4.51100     -1.290046     -1.290046
   4.67211     -1.290358     -1.290358
   4.83322     -1.288175     -1.288175
   4.99433     -1.284464     -1.284464
   5.15543     -1.279558     -1.279558
   5.31654     -1.273926     -1.273926
   5.47765     -1.268481     -1.268481
   5.63876     -1.263206     -1.263206
   5.79986     -1.258709     -1.258709
   5.96097     -1.255265     -1.255265
   6.12208     -1.253072     -1.253072
   6.28319     -1.252171     -1.252171
   6.28319     -1.252171     -1.252171
   6.36374     -1.252311     -1.252311
   6.44429     -1.252829     -1.252829
   6.52485     -1.253558     -1.253558
   6.60540     -1.254509     -1.254509
   6.68595     -1.255771     -1.255771
   6.76651     -1.257206     -1.257206
   6.84706     -1.258856     -1.258856
   6.92761     -1.260700     -1.260700
   7.00817     -1.262751     -1.262751
   7.08872     -1.264913     -1.264913
   7.16928     -1.267148     -1.267148
   7.24983     -1.269561     -1.269561
   7.33038     -1.272001     -1.272001
   7.41094     -1.274609     -1.274609
   7.49149     -1.277117     -1.277117
   7.57204     -1.279626     -1.279626
   7.65260     -1.282120     -1.282120
   7.73315     -1.284583     -1.284583
   7.81370     -1.287004     -1.287004
   7.89426     -1.289464     -1.289464
   7.97481     -1.291788     -1.291788
   8.05537     -1.294062     -1.294062
   8.13592     -1.296179     -1.296179
   8.21647     -1.298383     -1.298383
   8.29703     -1.300563     -1.300563
   8.37758     -1.302773     -1.302773
   8.45813     -1.304836     -1.304836
   8.53869     -1.307042     -1.307042
   8.61924     -1.309291     -1.309291
   8.69980     -1.311597     -1.311597
   8.78035     -1.313982     -1.313982
   8.86090     -1.316349     -1.316349
   8.94146     -1.318831     -1.318831
   9.02201     -1.321380     -1.321380
   9.10256     -1.323766     -1.323766
   9.18312     -1.325928     -1.325928
   9.26367     -1.327688     -1.327688
   9.34422     -1.329110     -1.329110
   9.42478     -1.329550     -1.329550
   9.42478     -1.329550     -1.329550
   9.63015     -1.320734     -1.320734
   9.83552     -1.315390     -1.315390
  10.04089     -1.314042     -1.314042
  10.24627     -1.317482     -1.317482
  10.45164     -1.326648     -1.326648
  10.65701     -1.341774     -1.341774
  10.86238     -1.362558     -1.362558
  11.06776     -1.388679     -1.388679
  11.27313     -1.419488     -1.419488
  11.47850     -1.454268     -1.454268
  11.68387     -1.491181     -1.491181
  11.88925     -1.529551     -1.529551
  12.09462     -1.567591     -1.567591
  12.29999     -1.603795     -1.603795
  12.50536     -1.636759     -1.636759
  12.71074     -1.665054     -1.665054
  12.91611     -1.688288     -1.688288
  13.12148     -1.707111     -1.707111
  13.32685     -1.721839     -1.721839
  13.53222     -1.732520     -1.732520
  13.73760     -1.738065     -1.738065
  13.94297     -1.736493     -1.736493
  14.14834     -1.725906     -1.725906
  14.35371     -1.707111     -1.707111
  14.55909     -1.682504     -1.682504
  14.76446     -1.654409     -1.654409
  14.96983     -1.624578     -1.624578
  15.17520     -1.593479     -1.593479
  15.38058     -1.561779     -1.561779
  15.58595     -1.529551     -1.529551
  15.79132     -1.496767     -1.496767
  15.99669     -1.463467     -1.463467
  16.20207     -1.429835     -1.429835
  16.40744     -1.396570     -1.396570
  16.61281     -1.364160     -1.364160
  16.81818     -1.333677     -1.333677
  17.02355     -1.305586     -1.305586
  17.22893     -1.280828     -1.280828
  17.43430     -1.260048     -1.260048
  17.43430     -1.260048     -1.260048
  17.60518     -1.259614     -1.259614
  17.77606     -1.258833     -1.258833
  17.94694     -1.257437     -1.257437
  18.11782     -1.255308     -1.255308
  18.28870     -1.252618     -1.252618
  18.45958     -1.249380     -1.249380
  18.63046     -1.245581     -1.245581
  18.80134     -1.241177     -1.241177
  18.97222     -1.236915     -1.236915
  19.14310     -1.233734     -1.233734
  19.31398     -1.232420     -1.232420
  19.48486     -1.234496     -1.234496
  19.65574     -1.241139     -1.241139
  19.82662     -1.251664     -1.251664
  19.99750     -1.266741     -1.266741
  20.16838     -1.285312     -1.285312
  20.33926     -1.304917     -1.304917
  20.51014     -1.327143     -1.327143
  20.68102     -1.350518     -1.350518
  20.85190     -1.374437     -1.374437
  21.02278     -1.399139     -1.399139
  21.19366     -1.424862     -1.424862
  21.36454     -1.451568     -1.451568
  21.53542     -1.478941     -1.478941
  21.70630     -1.507922     -1.507922
  21.87718     -1.537539     -1.537539
  22.04806     -1.567721     -1.567721
  22.21894     -1.598297     -1.598297
  22.38982     -1.629515     -1.629515
  22.56070     -1.660732     -1.660732
  22.73158     -1.691093     -1.691093
  22.90246     -1.720459     -1.720459
  23.07334     -1.748108     -1.748108
  23.24422     -1.773929     -1.773929
  23.41510     -1.797197     -1.797197
  23.58598     -1.817671     -1.817671
  23.75686     -1.833818     -1.833818
  23.92774     -1.844345     -1.844345
  24.09862     -1.848007     -1.848007
  24.09862     -1.848007     -1.848007
  24.23815     -1.845275     -1.845275
  24.37767     -1.837741     -1.837741
  24.51719     -1.826632     -1.826632
  24.65672     -1.814348     -1.814348
  24.79624     -1.802134     -1.802134
  24.93576     -1.790920     -1.790920
  25.07528     -1.781183     -1.781183
  25.21481     -1.773483     -1.773483
  25.35433     -1.766902     -1.766902
  25.49385     -1.761589     -1.761589
  25.63338     -1.757635     -1.757635
  25.77290     -1.754754     -1.754754
  25.91242     -1.752680     -1.752680
  26.05195     -1.751222     -1.751222
  26.19147     -1.750005     -1.750005
  26.33099     -1.748770     -1.748770
  26.47051     -1.748379     -1.748379
  26.61004     -1.748393     -1.748393
  26.74956     -1.748282     -1.748282
  26.88908     -1.748282     -1.748282
  27.02861     -1.748393     -1.748393
  27.16813     -1.748379     -1.748379
  27.30765     -1.748770     -1.748770
  27.44718     -1.750005     -1.750005
  27.58670     -1.751222     -1.751222
  27.72622     -1.752680     -1.752680
  27.86575     -1.754754     -1.754754
  28.00527     -1.757635     -1.757635
  28.14479     -1.761589     -1.761589
  28.28431     -1.766902     -1.766902
  28.42384     -1.773483     -1.773483
  28.56336     -1.781183     -1.781183
  28.70288     -1.790920     -1.790920
  28.84241     -1.802134     -1.802134
  28.98193     -1.814348     -1.814348
  29.12145     -1.826632     -1.826632
  29.26098     -1.837741     -1.837741
  29.40050     -1.845275     -1.845275
  29.54002     -1.848007     -1.848007
 
# Band-Index   12
  29.54002     -0.746735     -0.746735
  29.40050     -0.741522     -0.741522
  29.26098     -0.726370     -0.726370
  29.12145     -0.702107     -0.702107
  28.98193     -0.668745     -0.668745
  28.84241     -0.628211     -0.628211
  28.70288     -0.581829     -0.581829
  28.56336     -0.530715     -0.530715
  28.42384     -0.477426     -0.477426
  28.28431     -0.421622     -0.421622
  28.14479     -0.366640     -0.366640
  28.00527     -0.312763     -0.312763
  27.86575     -0.261235     -0.261235
  27.72622     -0.213824     -0.213824
  27.58670     -0.171018     -0.171018
  27.44718     -0.133751     -0.133751
  27.30765     -0.102746     -0.102746
  27.16813     -0.078924     -0.078924
  27.02861     -0.063364     -0.063364
  26.88908     -0.055176     -0.055176
  26.74956     -0.055176     -0.055176
  26.61004     -0.063364     -0.063364
  26.47051     -0.078924     -0.078924
  26.33099     -0.102746     -0.102746
  26.19147     -0.133751     -0.133751
  26.05195     -0.171018     -0.171018
  25.91242     -0.213824     -0.213824
  25.77290     -0.261235     -0.261235
  25.63338     -0.312763     -0.312763
  25.49385     -0.366640     -0.366640
  25.35433     -0.421622     -0.421622
  25.21481     -0.477426     -0.477426
  25.07528     -0.530715     -0.530715
  24.93576     -0.581829     -0.581829
  24.79624     -0.628211     -0.628211
  24.65672     -0.668745     -0.668745
  24.51719     -0.702107     -0.702107
  24.37767     -0.726370     -0.726370
  24.23815     -0.741522     -0.741522
  24.09862     -0.746735     -0.746735
  24.09862     -0.746735     -0.746735
  23.92774     -0.743007     -0.743007
  23.75686     -0.731595     -0.731595
  23.58598     -0.714726     -0.714726
  23.41510     -0.695410     -0.695410
  23.24422     -0.675941     -0.675941
  23.07334     -0.657639     -0.657639
  22.90246     -0.641620     -0.641620
  22.73158     -0.628367     -0.628367
  22.56070     -0.618088     -0.618088
  22.38982     -0.610074     -0.610074
  22.21894     -0.605015     -0.605015
  22.04806     -0.603752     -0.603752
  21.87718     -0.605902     -0.605902
  21.70630     -0.611967     -0.611967
  21.53542     -0.622248     -0.622248
  21.36454     -0.637035     -0.637035
  21.19366     -0.657116     -0.657116
  21.02278     -0.680669     -0.680669
  20.85190     -0.708227     -0.708227
  20.68102     -0.738065     -0.738065
  20.51014     -0.769005     -0.769005
  20.33926     -0.798492     -0.798492
  20.16838     -0.824403     -0.824403
  19.99750     -0.842974     -0.842974
  19.82662     -0.851167     -0.851167
  19.65574     -0.845988     -0.845988
  19.48486     -0.826290     -0.826290
  19.31398     -0.792498     -0.792498
  19.14310     -0.747170     -0.747170
  18.97222     -0.693233     -0.693233
  18.80134     -0.634124     -0.634124
  18.63046     -0.572233     -0.572233
  18.45958     -0.510603     -0.510603
  18.28870     -0.450911     -0.450911
  18.11782     -0.395602     -0.395602
  17.94694     -0.344804     -0.344804
  17.77606     -0.301277     -0.301277
  17.60518     -0.264658     -0.264658
  17.43430     -0.235176     -0.235176
  17.43430     -0.235176     -0.235176
  17.22893     -0.241002     -0.241002
  17.02355     -0.247724     -0.247724
  16.81818     -0.259270     -0.259270
  16.61281     -0.282078     -0.282078
  16.40744     -0.318916     -0.318916
  16.20207     -0.365710     -0.365710
  15.99669     -0.418825     -0.418825
  15.79132     -0.473710     -0.473710
  15.58595     -0.528017     -0.528017
  15.38058     -0.576785     -0.576785
  15.17520     -0.617237     -0.617237
  14.96983     -0.645632     -0.645632
  14.76446     -0.659531     -0.659531
  14.55909     -0.660335     -0.660335
  14.35371     -0.651002     -0.651002
  14.14834     -0.640321     -0.640321
  13.94297     -0.644594     -0.644594
  13.73760     -0.665273     -0.665273
  13.53222     -0.680807     -0.680807
  13.32685     -0.676872     -0.676872
  13.12148     -0.651002     -0.651002
  12.91611     -0.609104     -0.609104
  12.71074     -0.565171     -0.565171
  12.50536     -0.533515     -0.533515
  12.29999     -0.521090     -0.521090
  12.09462     -0.521301     -0.521301
  11.88925     -0.528017     -0.528017
  11.68387     -0.538734     -0.538734
  11.47850     -0.551613     -0.551613
  11.27313     -0.564736     -0.564736
  11.06776     -0.577222     -0.577222
  10.86238     -0.587765     -0.587765
  10.65701     -0.595624     -0.595624
  10.45164     -0.599728     -0.599728
  10.24627     -0.599500     -0.599500
  10.04089     -0.594977     -0.594977
   9.83552     -0.586134     -0.586134
   9.63015     -0.572863     -0.572863
   9.42478     -0.555824     -0.555824
   9.42478     -0.555824     -0.555824
   9.34422     -0.554105     -0.554105
   9.26367     -0.549148     -0.549148
   9.18312     -0.541078     -0.541078
   9.10256     -0.530137     -0.530137
   9.02201     -0.516646     -0.516646
   8.94146     -0.500625     -0.500625
   8.86090     -0.483208     -0.483208
   8.78035     -0.464493     -0.464493
   8.69980     -0.444646     -0.444646
   8.61924     -0.424832     -0.424832
   8.53869     -0.405204     -0.405204
   8.45813     -0.386271     -0.386271
   8.37758     -0.368684     -0.368684
   8.29703     -0.352329     -0.352329
   8.21647     -0.338545     -0.338545
   8.13592     -0.327280     -0.327280
   8.05537     -0.318493     -0.318493
   7.97481     -0.312331     -0.312331
   7.89426     -0.308307     -0.308307
   7.81370     -0.306190     -0.306190
   7.73315     -0.305360     -0.305360
   7.65260     -0.305736     -0.305736
   7.57204     -0.307160     -0.307160
   7.49149     -0.309747     -0.309747
   7.41094     -0.313264     -0.313264
   7.33038     -0.317187     -0.317187
   7.24983     -0.322405     -0.322405
   7.16928     -0.328024     -0.328024
   7.08872     -0.334549     -0.334549
   7.00817     -0.341493     -0.341493
   6.92761     -0.348713     -0.348713
   6.84706     -0.356052     -0.356052
   6.76651     -0.363197     -0.363197
   6.68595     -0.369860     -0.369860
   6.60540     -0.375617     -0.375617
   6.52485     -0.380497     -0.380497
   6.44429     -0.383930     -0.383930
   6.36374     -0.385415     -0.385415
   6.28319     -0.386185     -0.386185
   6.28319     -0.386185     -0.386185
   6.12208     -0.387524     -0.387524
   5.96097     -0.389826     -0.389826
   5.79986     -0.394106     -0.394106
   5.63876     -0.399354     -0.399354
   5.47765     -0.406004     -0.406004
   5.31654     -0.413902     -0.413902
   5.15543     -0.423211     -0.423211
   4.99433     -0.433377     -0.433377
   4.83322     -0.444841     -0.444841
   4.67211     -0.457267     -0.457266
   4.51100     -0.470415     -0.470415
   4.34990     -0.509018     -0.509018
   4.18879     -0.564973     -0.564973
   4.02768     -0.622443     -0.622443
   3.86658     -0.679810     -0.679810
   3.70547     -0.734784     -0.734784
   3.54436     -0.783150     -0.783150
   3.38325     -0.820222     -0.820222
   3.22215     -0.841881     -0.841881
   3.06104     -0.845483     -0.845483
   2.89993     -0.832093     -0.832093
   2.73882     -0.806029     -0.806029
   2.57772     -0.771868     -0.771868
   2.41661     -0.733720     -0.733720
   2.25550     -0.694932     -0.694932
   2.09440     -0.666667     -0.666667
   1.93329     -0.676282     -0.676282
   1.77218     -0.685682     -0.685682
   1.61107     -0.694703     -0.694703
   1.44997     -0.703319     -0.703319
   1.28886     -0.711467     -0.711467
   1.12775     -0.719262     -0.719262
   0.96664     -0.726321     -0.726321
   0.80554     -0.732538     -0.732538
   0.64443     -0.737778     -0.737778
   0.48332     -0.741983     -0.741983
   0.32221     -0.744683     -0.744683
   0.16111     -0.746566     -0.746566
   0.00000     -0.746735     -0.746735
 
# Band-Index   13
   0.00000     -0.746735     -0.746735
   0.16111     -0.737186     -0.737186
   0.32221     -0.709559     -0.709559
   0.48332     -0.671672     -0.671672
   0.64443     -0.632228     -0.632228
   0.80554     -0.596673     -0.596673
   0.96664     -0.571150     -0.571150
   1.12775     -0.555731     -0.555731
   1.28886     -0.551230     -0.551230
   1.44997     -0.556767     -0.556767
   1.61107     -0.571212     -0.571212
   1.77218     -0.593433     -0.593433
   1.93329     -0.623531     -0.623531
   2.09440     -0.657735     -0.657735
   2.25550     -0.656164     -0.656164
   2.41661     -0.645586     -0.645586
   2.57772     -0.634529     -0.634529
   2.73882     -0.622947     -0.622947
   2.89993     -0.610883     -0.610883
   3.06104     -0.598217     -0.598217
   3.22215     -0.584964     -0.584964
   3.38325     -0.571189     -0.571189
   3.54436     -0.557035     -0.557035
   3.70547     -0.542559     -0.542559
   3.86658     -0.527285     -0.527285
   4.02768     -0.512627     -0.512627
   4.18879     -0.498470     -0.498470
   4.34990     -0.484162     -0.484162
   4.51100     -0.456242     -0.456242
   4.67211     -0.408418     -0.408418
   4.83322     -0.366184     -0.366184
   4.99433     -0.329632     -0.329632
   5.15543     -0.299217     -0.299217
   5.31654     -0.274594     -0.274594
   5.47765     -0.255394     -0.255394
   5.63876     -0.240850     -0.240850
   5.79986     -0.230474     -0.230474
   5.96097     -0.223593     -0.223593
   6.12208     -0.219166     -0.219167
   6.28319     -0.217061     -0.217061
   6.28319     -0.217061     -0.217061
   6.36374     -0.216889     -0.216889
   6.44429     -0.216951     -0.216951
   6.52485     -0.216182     -0.216182
   6.60540     -0.215005     -0.215005
   6.68595     -0.213860     -0.213860
   6.76651     -0.212015     -0.212015
   6.84706     -0.209872     -0.209872
   6.92761     -0.207483     -0.207483
   7.00817     -0.205121     -0.205121
   7.08872     -0.202521     -0.202521
   7.16928     -0.199995     -0.199995
   7.24983     -0.197873     -0.197873
   7.33038     -0.196077     -0.196077
   7.41094     -0.195469     -0.195469
   7.49149     -0.195276     -0.195276
   7.57204     -0.196446     -0.196446
   7.65260     -0.199067     -0.199067
   7.73315     -0.202946     -0.202946
   7.81370     -0.207969     -0.207969
   7.89426     -0.213481     -0.213481
   7.97481     -0.219954     -0.219954
   8.05537     -0.226465     -0.226465
   8.13592     -0.232466     -0.232466
   8.21647     -0.237714     -0.237714
   8.29703     -0.242007     -0.242007
   8.37758     -0.245570     -0.245570
   8.45813     -0.247820     -0.247820
   8.53869     -0.249845     -0.249845
   8.61924     -0.251423     -0.251423
   8.69980     -0.252666     -0.252666
   8.78035     -0.253669     -0.253669
   8.86090     -0.254396     -0.254396
   8.94146     -0.255035     -0.255035
   9.02201     -0.255566     -0.255566
   9.10256     -0.255965     -0.255965
   9.18312     -0.256264     -0.256264
   9.26367     -0.256470     -0.256470
   9.34422     -0.256626     -0.256626
   9.42478     -0.257031     -0.257031
   9.42478     -0.257031     -0.257031
   9.63015     -0.249808     -0.249808
   9.83552     -0.239878     -0.239878
  10.04089     -0.227505     -0.227505
  10.24627     -0.213400     -0.213400
  10.45164     -0.199393     -0.199393
  10.65701     -0.186934     -0.186934
  10.86238     -0.177618     -0.177618
  11.06776     -0.173330     -0.173330
  11.27313     -0.175538     -0.175538
  11.47850     -0.186912     -0.186912
  11.68387     -0.208322     -0.208322
  11.88925     -0.240226     -0.240226
  12.09462     -0.282388     -0.282388
  12.29999     -0.330468     -0.330468
  12.50536     -0.377714     -0.377714
  12.71074     -0.413078     -0.413078
  12.91611     -0.435706     -0.435706
  13.12148     -0.453130     -0.453130
  13.32685     -0.471222     -0.471222
  13.53222     -0.491205     -0.491205
  13.73760     -0.510251     -0.510251
  13.94297     -0.518157     -0.518157
  14.14834     -0.497301     -0.497301
  14.35371     -0.453130     -0.453130
  14.55909     -0.402773     -0.402773
  14.76446     -0.356038     -0.356038
  14.96983     -0.315792     -0.315792
  15.17520     -0.283453     -0.283452
  15.38058     -0.258408     -0.258408
  15.58595     -0.240226     -0.240226
  15.79132     -0.227629     -0.227629
  15.99669     -0.219313     -0.219313
  16.20207     -0.213346     -0.213346
  16.40744     -0.207508     -0.207508
  16.61281     -0.198060     -0.198060
  16.81818     -0.181397     -0.181397
  17.02355     -0.159686     -0.159686
  17.22893     -0.139554     -0.139554
  17.43430     -0.124795     -0.124795
  17.43430     -0.124795     -0.124795
  17.60518     -0.140088     -0.140088
  17.77606     -0.165913     -0.165913
  17.94694     -0.201292     -0.201292
  18.11782     -0.245372     -0.245372
  18.28870     -0.294875     -0.294875
  18.45958     -0.348532     -0.348532
  18.63046     -0.402803     -0.402803
  18.80134     -0.455268     -0.455268
  18.97222     -0.502570     -0.502570
  19.14310     -0.542642     -0.542642
  19.31398     -0.572092     -0.572092
  19.48486     -0.589284     -0.589284
  19.65574     -0.591982     -0.591982
  19.82662     -0.579653     -0.579653
  19.99750     -0.554058     -0.554058
  20.16838     -0.517302     -0.517302
  20.33926     -0.471110     -0.471110
  20.51014     -0.418885     -0.418885
  20.68102     -0.363270     -0.363270
  20.85190     -0.307321     -0.307321
  21.02278     -0.253658     -0.253658
  21.19366     -0.206028     -0.206028
  21.36454     -0.166306     -0.166306
  21.53542     -0.138044     -0.138044
  21.70630     -0.122771     -0.122771
  21.87718     -0.121827     -0.121827
  22.04806     -0.135787     -0.135787
  22.21894     -0.164115     -0.164115
  22.38982     -0.206407     -0.206407
  22.56070     -0.261312     -0.261312
  22.73158     -0.324485     -0.324485
  22.90246     -0.394014     -0.394014
  23.07334     -0.468178     -0.468178
  23.24422     -0.539899     -0.539899
  23.41510     -0.606460     -0.606460
  23.58598     -0.664083     -0.664083
  23.75686     -0.708791     -0.708791
  23.92774     -0.737079     -0.737079
  24.09862     -0.746735     -0.746735
  24.09862     -0.746735     -0.746735
  24.23815     -0.741522     -0.741522
  24.37767     -0.726370     -0.726370
  24.51719     -0.702107     -0.702107
  24.65672     -0.668745     -0.668745
  24.79624     -0.628211     -0.628211
  24.93576     -0.581829     -0.581829
  25.07528     -0.530715     -0.530715
  25.21481     -0.477426     -0.477426
  25.35433     -0.421622     -0.421622
  25.49385     -0.366640     -0.366640
  25.63338     -0.312763     -0.312763
  25.77290     -0.261235     -0.261235
  25.91242     -0.213824     -0.213824
  26.05195     -0.171018     -0.171018
  26.19147     -0.133751     -0.133751
  26.33099     -0.102745     -0.102745
  26.47051     -0.078924     -0.078924
  26.61004     -0.063364     -0.063364
  26.74956     -0.055176     -0.055176
  26.88908     -0.055176     -0.055176
  27.02861     -0.063364     -0.063362
  27.16813     -0.078924     -0.078924
  27.30765     -0.102746     -0.102746
  27.44718     -0.133751     -0.133751
  27.58670     -0.171018     -0.171018
  27.72622     -0.213824     -0.213824
  27.86575     -0.261235     -0.261235
  28.00527     -0.312763     -0.312763
  28.14479     -0.366640     -0.366640
  28.28431     -0.421622     -0.421622
  28.42384     -0.477426     -0.477426
  28.56336     -0.530715     -0.530715
  28.70288     -0.581829     -0.581829
  28.84241     -0.628211     -0.628211
  28.98193     -0.668745     -0.668745
  29.12145     -0.702107     -0.702107
  29.26098     -0.726370     -0.726370
  29.40050     -0.741522     -0.741522
  29.54002     -0.746735     -0.746735
 
# Band-Index   14
  29.54002      0.843602      0.843602
  29.40050      0.856044      0.856044
  29.26098      0.892876      0.892876
  29.12145      0.953601      0.953601
  28.98193      1.034355      1.034355
  28.84241      1.133180      1.133180
  28.70288      1.247830      1.247829
  28.56336      1.374587      1.374588
  28.42384      1.505960      1.505964
  28.28431      1.631187      1.631187
  28.14479      1.706286      1.706254
  28.00527      1.714762      1.714759
  27.86575      1.699932      1.699932
  27.72622      1.680577      1.680579
  27.58670      1.661316      1.661315
  27.44718      1.644014      1.644015
  27.30765      1.630010      1.630010
  27.16813      1.618639      1.618631
  27.02861      1.610783      1.610803
  26.88908      1.606889      1.606889
  26.74956      1.606889      1.606889
  26.61004      1.610784      1.610783
  26.47051      1.618631      1.618631
  26.33099      1.630010      1.630010
  26.19147      1.644013      1.644014
  26.05195      1.661317      1.661315
  25.91242      1.680586      1.680577
  25.77290      1.699933      1.699932
  25.63338      1.714759      1.714757
  25.49385      1.706270      1.706259
  25.35433      1.631188      1.631191
  25.21481      1.505960      1.505960
  25.07528      1.374587      1.374587
  24.93576      1.247830      1.247829
  24.79624      1.133180      1.133180
  24.65672      1.034355      1.034355
  24.51719      0.953601      0.953601
  24.37767      0.892876      0.892876
  24.23815      0.856044      0.856044
  24.09862      0.843602      0.843602
  24.09862      0.843602      0.843602
  23.92774      0.862059      0.862059
  23.75686      0.916902      0.916902
  23.58598      1.005645      1.005645
  23.41510      1.124035      1.124035
  23.24422      1.267130      1.267130
  23.07334      1.429346      1.429346
  22.90246      1.602408      1.602424
  22.73158      1.743991      1.743988
  22.56070      1.751082      1.751079
  22.38982      1.730641      1.730648
  22.21894      1.711803      1.711798
  22.04806      1.696883      1.696886
  21.87718      1.686976      1.686975
  21.70630      1.682170      1.682170
  21.53542      1.681999      1.681999
  21.36454      1.685448      1.685448
  21.19366      1.691708      1.691709
  21.02278      1.698559      1.698559
  20.85190      1.706364      1.706365
  20.68102      1.712979      1.712979
  20.51014      1.717103      1.717103
  20.33926      1.717472      1.717472
  20.16838      1.712384      1.712385
  19.99750      1.702350      1.702350
  19.82662      1.686234      1.686234
  19.65574      1.663635      1.663634
  19.48486      1.635997      1.635998
  19.31398      1.601796      1.601796
  19.14310      1.562674      1.562674
  18.97222      1.519837      1.519838
  18.80134      1.474324      1.474324
  18.63046      1.427800      1.427800
  18.45958      1.381930      1.381930
  18.28870      1.338369      1.338369
  18.11782      1.298776      1.298776
  17.94694      1.264661      1.264661
  17.77606      1.237430      1.237430
  17.60518      1.218391      1.218392
  17.43430      1.207393      1.207393
  17.43430      1.207393      1.207393
  17.22893      1.235162      1.235162
  17.02355      1.270056      1.270056
  16.81818      1.311578      1.311579
  16.61281      1.359207      1.359207
  16.40744      1.411465      1.411465
  16.20207      1.467431      1.467431
  15.99669      1.525874      1.525873
  15.79132      1.585869      1.585870
  15.58595      1.646038      1.646038
  15.38058      1.705453      1.705453
  15.17520      1.762206      1.762213
  14.96983      1.812465      1.812466
  14.76446      1.846056      1.846055
  14.55909      1.718735      1.718735
  14.35371      1.600490      1.600490
  14.14834      1.511934      1.511934
  13.94297      1.459558      1.459557
  13.73760      1.446730      1.446730
  13.53222      1.470136      1.470136
  13.32685      1.525044      1.525044
  13.12148      1.600490      1.600490
  12.91611      1.672900      1.672900
  12.71074      1.700282      1.700285
  12.50536      1.689171      1.689172
  12.29999      1.671060      1.671060
  12.09462      1.655615      1.655615
  11.88925      1.646038      1.646038
  11.68387      1.642524      1.642524
  11.47850      1.644985      1.644985
  11.27313      1.653460      1.653459
  11.06776      1.667728      1.667728
  10.86238      1.687430      1.687430
  10.65701      1.712782      1.712782
  10.45164      1.743528      1.743528
  10.24627      1.779200      1.779200
  10.04089      1.818807      1.818807
   9.83552      1.861968      1.861968
   9.63015      1.906539      1.906538
   9.42478      1.946138      1.946137
   9.42478      1.946143      1.946137
   9.34422      1.934065      1.934065
   9.26367      1.909954      1.909951
   9.18312      1.882751      1.882751
   9.10256      1.854787      1.854786
   9.02201      1.826765      1.826765
   8.94146      1.799099      1.799100
   8.86090      1.771812      1.771812
   8.78035      1.745197      1.745197
   8.69980      1.719459      1.719459
   8.61924      1.694385      1.694385
   8.53869      1.670261      1.670261
   8.45813      1.647171      1.647171
   8.37758      1.624941      1.624941
   8.29703      1.604214      1.604214
   8.21647      1.584632      1.584632
   8.13592      1.566333      1.566331
   8.05537      1.548990      1.548989
   7.97481      1.533334      1.533334
   7.89426      1.519039      1.519040
   7.81370      1.506133      1.506133
   7.73315      1.494547      1.494547
   7.65260      1.484289      1.484289
   7.57204      1.475320      1.475320
   7.49149      1.467527      1.467527
   7.41094      1.460955      1.460955
   7.33038      1.455742      1.455742
   7.24983      1.451113      1.451113
   7.16928      1.447652      1.447652
   7.08872      1.444638      1.444638
   7.00817      1.442547      1.442547
   6.92761      1.441048      1.441048
   6.84706      1.440010      1.440010
   6.76651      1.439343      1.439343
   6.68595      1.438953      1.438952
   6.60540      1.438851      1.438851
   6.52485      1.438780      1.438780
   6.44429      1.438883      1.438883
   6.36374      1.439307      1.439307
   6.28319      1.439314      1.439314
   6.28319      1.439314      1.439314
   6.12208      1.439878      1.439878
   5.96097      1.441544      1.441544
   5.79986      1.444618      1.444618
   5.63876      1.449092      1.449092
   5.47765      1.454826      1.454826
   5.31654      1.461809      1.461809
   5.15543      1.470016      1.470016
   4.99433      1.479480      1.479480
   4.83322      1.490081      1.490081
   4.67211      1.501612      1.501612
   4.51100      1.514532      1.514532
   4.34990      1.528592      1.528592
   4.18879      1.543559      1.543559
   4.02768      1.559781      1.559781
   3.86658      1.576984      1.576984
   3.70547      1.594862      1.594862
   3.54436      1.613839      1.613841
   3.38325      1.633547      1.633547
   3.22215      1.653395      1.653395
   3.06104      1.674105      1.674105
   2.89993      1.695437      1.695437
   2.73882      1.716458      1.716458
   2.57772      1.737171      1.737170
   2.41661      1.757533      1.757533
   2.25550      1.776816      1.776816
   2.09440      1.794556      1.794562
   1.93329      1.809614      1.809613
   1.77218      1.818356      1.818357
   1.61107      1.811447      1.811413
   1.44997      1.768841      1.768842
   1.28886      1.672893      1.672887
   1.12775      1.535672      1.535672
   0.96664      1.381256      1.381256
   0.80554      1.232581      1.232580
   0.64443      1.098598      1.098598
   0.48332      0.989662      0.989662
   0.32221      0.909034      0.909034
   0.16111      0.859880      0.859880
   0.00000      0.843602      0.843602
 
# Band-Index   15
   0.00000      1.975639      1.975639
   0.16111      1.974316      1.974398
   0.32221      1.970368      1.969571
   0.48332      1.962514      1.962554
   0.64443      1.953722      1.954234
   0.80554      1.944017      1.943893
   0.96664      1.934581      1.933892
   1.12775      1.923550      1.923559
   1.28886      1.913985      1.913862
   1.44997      1.906904      1.906809
   1.61107      1.906651      1.906631
   1.77218      1.916154      1.916154
   1.93329      1.933193      1.933177
   2.09440      1.955164      1.955171
   2.25550      1.981889      1.981882
   2.41661      2.012887      2.012891
   2.57772      2.047846      2.047853
   2.73882      2.085992      2.085996
   2.89993      2.125529      2.125559
   3.06104      2.162823      2.162782
   3.22215      2.194474      2.194454
   3.38325      2.221935      2.221845
   3.54436      2.248195      2.248234
   3.70547      2.275403      2.275409
   3.86658      2.304518      2.304523
   4.02768      2.334831      2.334820
   4.18879      2.366489      2.366501
   4.34990      2.399367      2.399369
   4.51100      2.433160      2.433154
   4.67211      2.468092      2.468091
   4.83322      2.503581      2.503584
   4.99433      2.538926      2.538914
   5.15543      2.573540      2.573529
   5.31654      2.606632      2.606634
   5.47765      2.636935      2.636940
   5.63876      2.663870      2.663871
   5.79986      2.686128      2.686126
   5.96097      2.702809      2.702807
   6.12208      2.713182      2.713180
   6.28319      2.716898      2.716896
   6.28319      2.716896      2.716897
   6.36374      2.716583      2.716591
   6.44429      2.715391      2.715397
   6.52485      2.713239      2.713227
   6.60540      2.709505      2.709505
   6.68595      2.703744      2.703743
   6.76651      2.695981      2.695980
   6.84706      2.686408      2.686411
   6.92761      2.675255      2.675264
   7.00817      2.662619      2.662618
   7.08872      2.648847      2.648847
   7.16928      2.634115      2.634115
   7.24983      2.618233      2.618233
   7.33038      2.601632      2.601632
   7.41094      2.584101      2.584110
   7.49149      2.566066      2.566063
   7.57204      2.547481      2.547481
   7.65260      2.528367      2.528370
   7.73315      2.508793      2.508793
   7.81370      2.488790      2.488791
   7.89426      2.468028      2.468031
   7.97481      2.447150      2.447149
   8.05537      2.425832      2.425823
   8.13592      2.404398      2.404395
   8.21647      2.382076      2.382077
   8.29703      2.359214      2.359214
   8.37758      2.335731      2.335726
   8.45813      2.311841      2.311840
   8.53869      2.287173      2.287171
   8.61924      2.261874      2.261874
   8.69980      2.235961      2.235962
   8.78035      2.209345      2.209345
   8.86090      2.182302      2.182302
   8.94146      2.154783      2.154783
   9.02201      2.126847      2.126847
   9.10256      2.098759      2.098760
   9.18312      2.070774      2.070774
   9.26367      2.043576      2.043576
   9.34422      2.019353      2.019352
   9.42478      2.007160      2.007157
   9.42478      2.007157      2.007157
   9.63015      1.986416      1.986416
   9.83552      1.976779      1.976779
  10.04089      1.973280      1.973280
  10.24627      1.974171      1.974171
  10.45164      1.978373      1.978372
  10.65701      1.985460      1.985460
  10.86238      1.994924      1.994928
  11.06776      2.005984      2.005981
  11.27313      2.017660      2.017660
  11.47850      2.028372      2.028372
  11.68387      2.037260      2.037260
  11.88925      2.040364      2.040361
  12.09462      2.030947      2.030948
  12.29999      1.998135      1.998134
  12.50536      1.939964      1.939986
  12.71074      1.872961      1.872958
  12.91611      1.837456      1.837457
  13.12148      1.850667      1.850679
  13.32685      1.878179      1.878173
  13.53222      1.884931      1.884923
  13.73760      1.870404      1.870409
  13.94297      1.857487      1.857482
  14.14834      1.851133      1.851127
  14.35371      1.850662      1.850683
  14.55909      1.853252      1.853256
  14.76446      1.852975      1.852972
  14.96983      1.930824      1.930813
  15.17520      1.958891      1.958957
  15.38058      1.995885      1.995882
  15.58595      2.040361      2.040362
  15.79132      2.091060      2.091050
  15.99669      2.147391      2.147391
  16.20207      2.208155      2.208154
  16.40744      2.272291      2.272293
  16.61281      2.338014      2.338018
  16.81818      2.403557      2.403549
  17.02355      2.466911      2.466912
  17.22893      2.525374      2.525439
  17.43430      2.574931      2.574944
  17.43430      2.574936      2.574929
  17.60518      2.554565      2.554645
  17.77606      2.532835      2.533043
  17.94694      2.509843      2.509839
  18.11782      2.485637      2.485606
  18.28870      2.460126      2.460080
  18.45958      2.433106      2.433100
  18.63046      2.404157      2.404575
  18.80134      2.371815      2.371846
  18.97222      2.332669      2.332723
  19.14310      2.287509      2.287529
  19.31398      2.244452      2.244113
  19.48486      2.207318      2.207332
  19.65574      2.179448      2.179383
  19.82662      2.160031      2.160033
  19.99750      2.146708      2.146738
  20.16838      2.133863      2.133869
  20.33926      2.118262      2.118089
  20.51014      2.099242      2.099245
  20.68102      2.080012      2.079784
  20.85190      2.061318      2.061329
  21.02278      2.044328      2.044297
  21.19366      2.028988      2.028983
  21.36454      2.015577      2.015554
  21.53542      2.004000      2.003993
  21.70630      1.994072      1.994073
  21.87718      1.986022      1.986022
  22.04806      1.979747      1.979772
  22.21894      1.974928      1.974871
  22.38982      1.969735      1.969839
  22.56070      1.952078      1.951636
  22.73158      1.843575      1.843487
  22.90246      1.834765      1.834783
  23.07334      1.862576      1.862574
  23.24422      1.892984      1.892839
  23.41510      1.921675      1.921606
  23.58598      1.946203      1.946207
  23.75686      1.964210      1.964223
  23.92774      1.973409      1.973314
  24.09862      1.975639      1.975639
  24.09862      1.975639      1.975639
  24.23815      1.975087      1.975087
  24.37767      1.973168      1.973168
  24.51719      1.965847      1.965846
  24.65672      1.949007      1.949079
  24.79624      1.928741      1.928751
  24.93576      1.906326      1.906329
  25.07528      1.883564      1.883408
  25.21481      1.863187      1.863312
  25.35433      1.859360      1.859809
  25.49385      1.911694      1.911839
  25.63338      1.924094      1.924094
  25.77290      1.917372      1.917372
  25.91242      1.911057      1.911056
  26.05195      1.905295      1.905295
  26.19147      1.900238      1.900238
  26.33099      1.896132      1.896133
  26.47051      1.892862      1.892862
  26.61004      1.890551      1.890551
  26.74956      1.889424      1.889424
  26.88908      1.889424      1.889424
  27.02861      1.890551      1.890572
  27.16813      1.892863      1.892863
  27.30765      1.896132      1.896132
  27.44718      1.900238      1.900238
  27.58670      1.905295      1.905295
  27.72622      1.911056      1.911056
  27.86575      1.917371      1.917371
  28.00527      1.924093      1.924094
  28.14479      1.914526      1.911869
  28.28431      1.859577      1.859327
  28.42384      1.863215      1.863190
  28.56336      1.883410      1.883565
  28.70288      1.906343      1.906535
  28.84241      1.928794      1.928928
  28.98193      1.949204      1.949612
  29.12145      1.966477      1.965960
  29.26098      1.973168      1.973168
  29.40050      1.975088      1.975087
  29.54002      1.975640      1.975639
 
# Band-Index   16
  29.54002      1.975923      1.978902
  29.40050      1.975176      1.975179
  29.26098      1.973703      1.973511
  29.12145      1.970508      1.970508
  28.98193      1.966823      1.966823
  28.84241      1.962248      1.962248
  28.70288      1.956908      1.956909
  28.56336      1.950939      1.950938
  28.42384      1.944413      1.944413
  28.28431      1.937625      1.937625
  28.14479      1.930921      1.930921
  28.00527      1.924212      1.924172
  27.86575      1.917421      1.917380
  27.72622      1.911062      1.911063
  27.58670      1.905298      1.905296
  27.44718      1.900239      1.900240
  27.30765      1.896132      1.896133
  27.16813      1.892874      1.892863
  27.02861      1.890551      1.890576
  26.88908      1.889424      1.889424
  26.74956      1.889429      1.889425
  26.61004      1.890552      1.890552
  26.47051      1.892863      1.892863
  26.33099      1.896136      1.896134
  26.19147      1.900239      1.900244
  26.05195      1.905304      1.905296
  25.91242      1.911073      1.911069
  25.77290      1.917389      1.917401
  25.63338      1.924374      1.924702
  25.49385      1.930921      1.930921
  25.35433      1.937625      1.937625
  25.21481      1.944413      1.944413
  25.07528      1.950938      1.950938
  24.93576      1.956908      1.956908
  24.79624      1.962248      1.962248
  24.65672      1.966823      1.966823
  24.51719      1.970508      1.970508
  24.37767      1.974093      1.975925
  24.23815      1.975318      1.975185
  24.09862      1.977851      1.979564
  24.09862      1.977407      1.976742
  23.92774      1.976107      1.977564
  23.75686      1.977728      1.977615
  23.58598      1.980377      1.980551
  23.41510      1.979242      1.979376
  23.24422      1.977877      1.979112
  23.07334      1.976947      1.976916
  22.90246      1.976691      1.976695
  22.73158      1.980912      1.980829
  22.56070      2.019912      2.020059
  22.38982      2.031373      2.031409
  22.21894      2.043815      2.043797
  22.04806      2.057349      2.057366
  21.87718      2.071973      2.071973
  21.70630      2.087616      2.087613
  21.53542      2.103894      2.103903
  21.36454      2.120956      2.120847
  21.19366      2.138397      2.138362
  21.02278      2.156921      2.156613
  20.85190      2.175489      2.175547
  20.68102      2.195144      2.195128
  20.51014      2.215523      2.215578
  20.33926      2.223033      2.215329
  20.16838      2.206391      2.206183
  19.99750      2.213400      2.212907
  19.82662      2.230578      2.230802
  19.65574      2.254720      2.254236
  19.48486      2.282231      2.281776
  19.31398      2.317076      2.311574
  19.14310      2.345575      2.344566
  18.97222      2.384544      2.383752
  18.80134      2.436231      2.441004
  18.63046      2.470111      2.475346
  18.45958      2.492794      2.492982
  18.28870      2.515152      2.514839
  18.11782      2.535920      2.535926
  17.94694      2.556008      2.556024
  17.77606      2.575002      2.575124
  17.60518      2.592747      2.592764
  17.43430      2.609464      2.609479
  17.43430      2.609472      2.609460
  17.22893      2.578627      2.578751
  17.02355      2.547796      2.547786
  16.81818      2.515186      2.515248
  16.61281      2.480222      2.480228
  16.40744      2.442315      2.442208
  16.20207      2.401391      2.401391
  15.99669      2.357628      2.357631
  15.79132      2.310289      2.310281
  15.58595      2.257268      2.257270
  15.38058      2.193337      2.193246
  15.17520      2.108441      2.108514
  14.96983      1.996204      1.996187
  14.76446      1.933607      1.933596
  14.55909      1.957003      1.956999
  14.35371      1.994729      1.994709
  14.14834      2.032212      2.031805
  13.94297      2.042230      2.042276
  13.73760      1.997183      1.997258
  13.53222      1.960315      1.960317
  13.32685      1.957657      1.957661
  13.12148      1.994671      1.994750
  12.91611      2.051562      2.051553
  12.71074      2.112330      2.111519
  12.50536      2.137942      2.138077
  12.29999      2.158986      2.159043
  12.09462      2.198341      2.198315
  11.88925      2.257319      2.257267
  11.68387      2.326068      2.326068
  11.47850      2.398074      2.398075
  11.27313      2.469640      2.469658
  11.06776      2.537854      2.537891
  10.86238      2.600251      2.600361
  10.65701      2.654318      2.654520
  10.45164      2.697043      2.697011
  10.24627      2.724171      2.724074
  10.04089      2.734095      2.734815
   9.83552      2.731537      2.731424
   9.63015      2.719886      2.720063
   9.42478      2.699685      2.699644
   9.42478      2.699634      2.699638
   9.34422      2.699716      2.699723
   9.26367      2.700118      2.700125
   9.18312      2.700260      2.700260
   9.10256      2.700494      2.700469
   9.02201      2.700843      2.700723
   8.94146      2.701104      2.701116
   8.86090      2.701722      2.701492
   8.78035      2.701862      2.701863
   8.69980      2.702612      2.702516
   8.61924      2.703131      2.703052
   8.53869      2.703714      2.703712
   8.45813      2.704585      2.704438
   8.37758      2.705193      2.705170
   8.29703      2.706093      2.706091
   8.21647      2.706977      2.706962
   8.13592      2.707929      2.707994
   8.05537      2.708801      2.708786
   7.97481      2.709769      2.709775
   7.89426      2.710711      2.710714
   7.81370      2.711710      2.711710
   7.73315      2.712687      2.712682
   7.65260      2.713650      2.713654
   7.57204      2.714600      2.714609
   7.49149      2.715542      2.715537
   7.41094      2.716440      2.716435
   7.33038      2.717376      2.717379
   7.24983      2.718245      2.718233
   7.16928      2.719111      2.719119
   7.08872      2.719941      2.719950
   7.00817      2.720783      2.720787
   6.92761      2.721666      2.721682
   6.84706      2.722632      2.722632
   6.76651      2.723783      2.723781
   6.68595      2.725256      2.725257
   6.60540      2.727269      2.727269
   6.52485      2.729582      2.729583
   6.44429      2.731904      2.731926
   6.36374      2.733568      2.733570
   6.28319      2.734132      2.734136
   6.28319      2.734132      2.734132
   6.12208      2.732606      2.732603
   5.96097      2.728621      2.728618
   5.79986      2.722083      2.722082
   5.63876      2.713019      2.713019
   5.47765      2.701481      2.701481
   5.31654      2.687718      2.687725
   5.15543      2.671603      2.671615
   4.99433      2.653470      2.653449
   4.83322      2.633224      2.633224
   4.67211      2.610937      2.610930
   4.51100      2.587001      2.586949
   4.34990      2.561268      2.561259
   4.18879      2.534279      2.534249
   4.02768      2.505771      2.505568
   3.86658      2.475295      2.476341
   3.70547      2.443902      2.443813
   3.54436      2.383994      2.398232
   3.38325      2.325233      2.324665
   3.22215      2.274914      2.274653
   3.06104      2.237594      2.237587
   2.89993      2.215192      2.216514
   2.73882      2.203130      2.203168
   2.57772      2.198566      2.201307
   2.41661      2.179114      2.178979
   2.25550      2.149482      2.149386
   2.09440      2.121703      2.121763
   1.93329      2.096402      2.096546
   1.77218      2.073670      2.073871
   1.61107      2.053548      2.054063
   1.44997      2.035644      2.035612
   1.28886      1.990124      1.990167
   1.12775      1.972651      1.972473
   0.96664      1.969661      1.969459
   0.80554      1.971605      1.971230
   0.64443      1.978233      1.976754
   0.48332      1.981002      1.980932
   0.32221      1.977810      1.977875
   0.16111      1.975890      1.976294
   0.00000      1.975756      1.977871
 
# Band-Index   17
   0.00000      1.989542      1.989945
   0.16111      1.989903      1.990721
   0.32221      1.986161      1.985424
   0.48332      1.984210      1.981320
   0.64443      1.986089      1.986687
   0.80554      1.997220      1.991251
   0.96664      2.000381      2.001187
   1.12775      2.009905      2.009856
   1.28886      2.023199      2.021891
   1.44997      2.039259      2.040090
   1.61107      2.112286      2.100523
   1.77218      2.151483      2.166516
   1.93329      2.188257      2.184924
   2.09440      2.219871      2.195997
   2.25550      2.209517      2.198710
   2.41661      2.198454      2.198366
   2.57772      2.210210      2.211453
   2.73882      2.242741      2.244503
   2.89993      2.276406      2.281571
   3.06104      2.311752      2.310038
   3.22215      2.344527      2.343893
   3.38325      2.378275      2.378297
   3.54436      2.411844      2.441632
   3.70547      2.446878      2.446952
   3.86658      2.515742      2.523052
   4.02768      2.589679      2.588013
   4.18879      2.662833      2.687294
   4.34990      2.742329      2.764643
   4.51100      2.905504      2.838425
   4.67211      2.907687      2.904117
   4.83322      3.000349      3.021230
   4.99433      3.076643      3.459578
   5.15543      3.285788      3.415274
   5.31654      3.357516      3.264576
   5.47765      3.353048      3.356258
   5.63876      3.455382      3.469134
   5.79986      3.443142      3.442685
   5.96097      3.487291      3.495369
   6.12208      3.505949      3.510292
   6.28319      3.505641      3.520752
   6.28319      3.517385      3.526653
   6.36374      3.537844      3.520567
   6.44429      3.500629      3.509038
   6.52485      3.520878      3.520852
   6.60540      3.497772      3.476285
   6.68595      3.458766      3.471739
   6.76651      3.507046      3.496697
   6.84706      3.415985      3.464807
   6.92761      3.426580      3.433480
   7.00817      3.428739      3.391277
   7.08872      3.362350      3.350042
   7.16928      3.358472      3.514092
   7.24983      3.424505      3.328706
   7.33038      3.277147      3.416951
   7.41094      3.306491      3.304909
   7.49149      3.268181      3.314254
   7.57204      3.199381      3.218721
   7.65260      3.189022      3.279761
   7.73315      3.167541      3.154335
   7.81370      3.133888      3.136361
   7.89426      3.106850      3.109478
   7.97481      3.089518      3.145767
   8.05537      3.074984      3.086373
   8.13592      3.050326      3.176612
   8.21647      3.037386      3.033657
   8.29703      3.029049      3.016578
   8.37758      3.005031      3.006500
   8.45813      2.988564      2.989558
   8.53869      2.977474      3.039904
   8.61924      2.992800      2.968221
   8.69980      3.000179      2.959361
   8.78035      2.949271      2.949009
   8.86090      2.953545      2.942307
   8.94146      2.939089      2.934480
   9.02201      2.941804      2.928372
   9.10256      2.923995      2.926317
   9.18312      2.922324      2.922457
   9.26367      2.932260      2.921016
   9.34422      2.919709      2.918072
   9.42478      2.916771      2.917614
   9.42478      2.925449      2.919332
   9.63015      2.905757      2.934273
   9.83552      2.879373      2.875957
  10.04089      2.856446      2.935780
  10.24627      3.217865      2.845022
  10.45164      2.851974      2.861053
  10.65701      2.844412      2.850458
  10.86238      2.849140      3.076353
  11.06776      2.879871      2.850528
  11.27313      2.846782      2.852115
  11.47850      2.793269      2.830624
  11.68387      2.764059      2.762455
  11.88925      2.821750      2.636457
  12.09462      2.545064      2.521633
  12.29999      2.395952      2.406151
  12.50536      2.276828      2.301449
  12.71074      2.185625      2.206007
  12.91611      2.161898      2.154583
  13.12148      2.153193      2.149993
  13.32685      2.134868      2.133643
  13.53222      2.113867      2.115025
  13.73760      2.092264      2.103960
  13.94297      2.064860      2.066662
  14.14834      2.098696      2.095309
  14.35371      2.156425      2.152710
  14.55909      2.196578      2.195942
  14.76446      2.260003      2.255627
  14.96983      2.345594      2.376300
  15.17520      2.444712      2.809694
  15.38058      2.917366      2.636824
  15.58595      2.672479      2.678306
  15.79132      2.932482      2.716029
  15.99669      2.739425      3.163404
  16.20207      2.789491      2.878533
  16.40744      2.958303      2.815982
  16.61281      2.893840      2.859883
  16.81818      2.912277      2.978226
  17.02355      3.010290      2.967946
  17.22893      3.004636      3.012340
  17.43430      3.117842      3.133564
  17.43430      3.185689      3.128199
  17.60518      3.023895      3.006741
  17.77606      2.943262      3.066164
  17.94694      3.160126      2.820817
  18.11782      2.738088      2.735838
  18.28870      2.684608      2.655527
  18.45958      2.581014      2.576418
  18.63046      2.504156      2.513708
  18.80134      2.447007      2.451667
  18.97222      2.425424      2.426364
  19.14310      2.399940      2.398943
  19.31398      2.377332      2.376445
  19.48486      2.351548      2.350566
  19.65574      2.338850      2.326914
  19.82662      2.310934      2.303990
  19.99750      2.287548      2.287901
  20.16838      2.261635      2.258262
  20.33926      2.238965      2.237442
  20.51014      2.237357      2.238543
  20.68102      2.273680      2.270038
  20.85190      2.311279      2.317883
  21.02278      2.501739      2.362419
  21.19366      2.405870      2.406890
  21.36454      2.662168      2.475416
  21.53542      2.595600      2.502810
  21.70630      2.764750      2.565045
  21.87718      2.524720      2.508708
  22.04806      2.470611      2.746224
  22.21894      2.366991      2.339048
  22.38982      2.194127      2.298205
  22.56070      2.042471      2.023975
  22.73158      2.012447      2.016332
  22.90246      2.001702      2.002153
  23.07334      1.995143      1.994808
  23.24422      1.999466      1.994445
  23.41510      1.985372      1.984700
  23.58598      1.981103      1.981413
  23.75686      1.983243      1.983038
  23.92774      1.988199      2.020425
  24.09862      1.990491      1.992057
  24.09862      1.990498      1.991539
  24.23815      1.987147      1.986987
  24.37767      1.978671      1.978540
  24.51719      1.975395      1.971255
  24.65672      1.969320      1.967071
  24.79624      1.964475      1.962321
  24.93576      1.959387      1.957750
  25.07528      1.951865      1.954398
  25.21481      1.944532      1.945253
  25.35433      1.939790      1.945771
  25.49385      1.934506      1.937697
  25.63338      2.036517      2.035783
  25.77290      2.193568      2.200035
  25.91242      2.358484      2.499889
  26.05195      2.860936      2.526613
  26.19147      2.691842      2.780606
  26.33099      2.960898      3.011248
  26.47051      3.024867      3.019598
  26.61004      3.034133      3.020526
  26.74956      3.036124      3.039756
  26.88908      3.019818      3.029984
  27.02861      3.049690      3.032010
  27.16813      3.007781      3.010188
  27.30765      2.964683      3.010460
  27.44718      2.711900      2.682407
  27.58670      2.602622      2.523599
  27.72622      2.346789      2.387465
  27.86575      2.210299      2.198103
  28.00527      2.051486      2.039639
  28.14479      1.945241      1.931061
  28.28431      1.938505      1.940312
  28.42384      1.944703      1.944999
  28.56336      1.951641      1.954355
  28.70288      1.961497      1.971979
  28.84241      1.962722      1.963745
  28.98193      1.967474      1.971908
  29.12145      1.971990      1.970884
  29.26098      1.978539      1.978872
  29.40050      1.986552      1.987118
  29.54002      1.989129      1.990744
